# E (eV)   ldos(E)   pdos(E)   
  -3.634  0.448E-04  0.448E-04
  -3.624  0.700E-04  0.700E-04
  -3.614  0.108E-03  0.108E-03
  -3.604  0.165E-03  0.165E-03
  -3.594  0.250E-03  0.250E-03
  -3.584  0.374E-03  0.374E-03
  -3.574  0.554E-03  0.554E-03
  -3.564  0.812E-03  0.812E-03
  -3.554  0.118E-02  0.118E-02
  -3.544  0.169E-02  0.169E-02
  -3.534  0.240E-02  0.240E-02
  -3.524  0.337E-02  0.337E-02
  -3.514  0.469E-02  0.469E-02
  -3.504  0.645E-02  0.645E-02
  -3.494  0.878E-02  0.878E-02
  -3.484  0.118E-01  0.118E-01
  -3.474  0.158E-01  0.158E-01
  -3.464  0.208E-01  0.208E-01
  -3.454  0.272E-01  0.272E-01
  -3.444  0.352E-01  0.352E-01
  -3.434  0.451E-01  0.451E-01
  -3.424  0.571E-01  0.571E-01
  -3.414  0.717E-01  0.717E-01
  -3.404  0.890E-01  0.890E-01
  -3.394  0.109E+00  0.109E+00
  -3.384  0.133E+00  0.133E+00
  -3.374  0.160E+00  0.160E+00
  -3.364  0.191E+00  0.191E+00
  -3.354  0.226E+00  0.226E+00
  -3.344  0.264E+00  0.264E+00
  -3.334  0.306E+00  0.306E+00
  -3.324  0.351E+00  0.351E+00
  -3.314  0.398E+00  0.398E+00
  -3.304  0.448E+00  0.448E+00
  -3.294  0.500E+00  0.500E+00
  -3.284  0.552E+00  0.552E+00
  -3.274  0.604E+00  0.604E+00
  -3.264  0.655E+00  0.655E+00
  -3.254  0.704E+00  0.704E+00
  -3.244  0.750E+00  0.750E+00
  -3.234  0.792E+00  0.792E+00
  -3.224  0.830E+00  0.830E+00
  -3.214  0.863E+00  0.863E+00
  -3.204  0.890E+00  0.890E+00
  -3.194  0.910E+00  0.910E+00
  -3.184  0.925E+00  0.925E+00
  -3.174  0.933E+00  0.933E+00
  -3.164  0.935E+00  0.935E+00
  -3.154  0.931E+00  0.931E+00
  -3.144  0.922E+00  0.922E+00
  -3.134  0.908E+00  0.908E+00
  -3.124  0.889E+00  0.889E+00
  -3.114  0.868E+00  0.868E+00
  -3.104  0.843E+00  0.843E+00
  -3.094  0.816E+00  0.816E+00
  -3.084  0.788E+00  0.788E+00
  -3.074  0.758E+00  0.758E+00
  -3.064  0.729E+00  0.729E+00
  -3.054  0.699E+00  0.699E+00
  -3.044  0.671E+00  0.671E+00
  -3.034  0.643E+00  0.643E+00
  -3.024  0.616E+00  0.616E+00
  -3.014  0.591E+00  0.591E+00
  -3.004  0.567E+00  0.567E+00
  -2.994  0.544E+00  0.544E+00
  -2.984  0.523E+00  0.523E+00
  -2.974  0.503E+00  0.503E+00
  -2.964  0.485E+00  0.485E+00
  -2.954  0.468E+00  0.468E+00
  -2.944  0.452E+00  0.452E+00
  -2.934  0.437E+00  0.437E+00
  -2.924  0.423E+00  0.423E+00
  -2.914  0.411E+00  0.411E+00
  -2.904  0.399E+00  0.399E+00
  -2.894  0.388E+00  0.388E+00
  -2.884  0.378E+00  0.378E+00
  -2.874  0.368E+00  0.368E+00
  -2.864  0.359E+00  0.359E+00
  -2.854  0.350E+00  0.350E+00
  -2.844  0.342E+00  0.342E+00
  -2.834  0.334E+00  0.334E+00
  -2.824  0.327E+00  0.327E+00
  -2.814  0.320E+00  0.320E+00
  -2.804  0.313E+00  0.313E+00
  -2.794  0.307E+00  0.307E+00
  -2.784  0.300E+00  0.300E+00
  -2.774  0.294E+00  0.294E+00
  -2.764  0.288E+00  0.288E+00
  -2.754  0.283E+00  0.283E+00
  -2.744  0.277E+00  0.277E+00
  -2.734  0.272E+00  0.272E+00
  -2.724  0.268E+00  0.268E+00
  -2.714  0.263E+00  0.263E+00
  -2.704  0.259E+00  0.259E+00
  -2.694  0.255E+00  0.255E+00
  -2.684  0.251E+00  0.251E+00
  -2.674  0.247E+00  0.247E+00
  -2.664  0.244E+00  0.244E+00
  -2.654  0.240E+00  0.240E+00
  -2.644  0.237E+00  0.237E+00
  -2.634  0.234E+00  0.234E+00
  -2.624  0.230E+00  0.230E+00
  -2.614  0.227E+00  0.227E+00
  -2.604  0.223E+00  0.223E+00
  -2.594  0.220E+00  0.220E+00
  -2.584  0.216E+00  0.216E+00
  -2.574  0.213E+00  0.213E+00
  -2.564  0.209E+00  0.209E+00
  -2.554  0.206E+00  0.206E+00
  -2.544  0.203E+00  0.203E+00
  -2.534  0.200E+00  0.200E+00
  -2.524  0.197E+00  0.197E+00
  -2.514  0.194E+00  0.194E+00
  -2.504  0.192E+00  0.192E+00
  -2.494  0.190E+00  0.190E+00
  -2.484  0.188E+00  0.188E+00
  -2.474  0.186E+00  0.186E+00
  -2.464  0.185E+00  0.185E+00
  -2.454  0.183E+00  0.183E+00
  -2.444  0.182E+00  0.182E+00
  -2.434  0.181E+00  0.181E+00
  -2.424  0.179E+00  0.179E+00
  -2.414  0.178E+00  0.178E+00
  -2.404  0.176E+00  0.176E+00
  -2.394  0.174E+00  0.174E+00
  -2.384  0.172E+00  0.172E+00
  -2.374  0.170E+00  0.170E+00
  -2.364  0.168E+00  0.168E+00
  -2.354  0.166E+00  0.166E+00
  -2.344  0.163E+00  0.163E+00
  -2.334  0.160E+00  0.160E+00
  -2.324  0.158E+00  0.158E+00
  -2.314  0.155E+00  0.155E+00
  -2.304  0.153E+00  0.153E+00
  -2.294  0.150E+00  0.150E+00
  -2.284  0.148E+00  0.148E+00
  -2.274  0.147E+00  0.147E+00
  -2.264  0.145E+00  0.145E+00
  -2.254  0.144E+00  0.144E+00
  -2.244  0.143E+00  0.143E+00
  -2.234  0.142E+00  0.142E+00
  -2.224  0.142E+00  0.142E+00
  -2.214  0.142E+00  0.142E+00
  -2.204  0.141E+00  0.141E+00
  -2.194  0.141E+00  0.141E+00
  -2.184  0.141E+00  0.141E+00
  -2.174  0.141E+00  0.141E+00
  -2.164  0.141E+00  0.141E+00
  -2.154  0.141E+00  0.141E+00
  -2.144  0.141E+00  0.141E+00
  -2.134  0.140E+00  0.140E+00
  -2.124  0.139E+00  0.139E+00
  -2.114  0.137E+00  0.137E+00
  -2.104  0.136E+00  0.136E+00
  -2.094  0.134E+00  0.134E+00
  -2.084  0.132E+00  0.132E+00
  -2.074  0.129E+00  0.129E+00
  -2.064  0.127E+00  0.127E+00
  -2.054  0.124E+00  0.124E+00
  -2.044  0.121E+00  0.121E+00
  -2.034  0.119E+00  0.119E+00
  -2.024  0.116E+00  0.116E+00
  -2.014  0.114E+00  0.114E+00
  -2.004  0.112E+00  0.112E+00
  -1.994  0.111E+00  0.111E+00
  -1.984  0.110E+00  0.110E+00
  -1.974  0.109E+00  0.109E+00
  -1.964  0.109E+00  0.109E+00
  -1.954  0.109E+00  0.109E+00
  -1.944  0.110E+00  0.110E+00
  -1.934  0.111E+00  0.111E+00
  -1.924  0.112E+00  0.112E+00
  -1.914  0.114E+00  0.114E+00
  -1.904  0.116E+00  0.116E+00
  -1.894  0.117E+00  0.117E+00
  -1.884  0.118E+00  0.118E+00
  -1.874  0.120E+00  0.120E+00
  -1.864  0.120E+00  0.120E+00
  -1.854  0.120E+00  0.120E+00
  -1.844  0.120E+00  0.120E+00
  -1.834  0.119E+00  0.119E+00
  -1.824  0.118E+00  0.118E+00
  -1.814  0.116E+00  0.116E+00
  -1.804  0.113E+00  0.113E+00
  -1.794  0.111E+00  0.111E+00
  -1.784  0.107E+00  0.107E+00
  -1.774  0.104E+00  0.104E+00
  -1.764  0.100E+00  0.100E+00
  -1.754  0.967E-01  0.967E-01
  -1.744  0.934E-01  0.934E-01
  -1.734  0.904E-01  0.904E-01
  -1.724  0.879E-01  0.879E-01
  -1.714  0.859E-01  0.859E-01
  -1.704  0.845E-01  0.845E-01
  -1.694  0.838E-01  0.838E-01
  -1.684  0.837E-01  0.837E-01
  -1.674  0.844E-01  0.844E-01
  -1.664  0.856E-01  0.856E-01
  -1.654  0.874E-01  0.874E-01
  -1.644  0.896E-01  0.896E-01
  -1.634  0.922E-01  0.922E-01
  -1.624  0.949E-01  0.949E-01
  -1.614  0.977E-01  0.977E-01
  -1.604  0.100E+00  0.100E+00
  -1.594  0.103E+00  0.103E+00
  -1.584  0.105E+00  0.105E+00
  -1.574  0.106E+00  0.106E+00
  -1.564  0.107E+00  0.107E+00
  -1.554  0.107E+00  0.107E+00
  -1.544  0.107E+00  0.107E+00
  -1.534  0.106E+00  0.106E+00
  -1.524  0.104E+00  0.104E+00
  -1.514  0.102E+00  0.102E+00
  -1.504  0.987E-01  0.987E-01
  -1.494  0.954E-01  0.954E-01
  -1.484  0.919E-01  0.919E-01
  -1.474  0.883E-01  0.883E-01
  -1.464  0.847E-01  0.847E-01
  -1.454  0.814E-01  0.814E-01
  -1.444  0.783E-01  0.783E-01
  -1.434  0.756E-01  0.756E-01
  -1.424  0.734E-01  0.734E-01
  -1.414  0.718E-01  0.718E-01
  -1.404  0.707E-01  0.707E-01
  -1.394  0.703E-01  0.703E-01
  -1.384  0.704E-01  0.704E-01
  -1.374  0.711E-01  0.711E-01
  -1.364  0.722E-01  0.722E-01
  -1.354  0.738E-01  0.738E-01
  -1.344  0.756E-01  0.756E-01
  -1.334  0.776E-01  0.776E-01
  -1.324  0.797E-01  0.797E-01
  -1.314  0.817E-01  0.817E-01
  -1.304  0.837E-01  0.837E-01
  -1.294  0.854E-01  0.854E-01
  -1.284  0.869E-01  0.869E-01
  -1.274  0.880E-01  0.880E-01
  -1.264  0.888E-01  0.888E-01
  -1.254  0.891E-01  0.891E-01
  -1.244  0.891E-01  0.891E-01
  -1.234  0.887E-01  0.887E-01
  -1.224  0.879E-01  0.879E-01
  -1.214  0.868E-01  0.868E-01
  -1.204  0.854E-01  0.854E-01
  -1.194  0.838E-01  0.838E-01
  -1.184  0.821E-01  0.821E-01
  -1.174  0.804E-01  0.804E-01
  -1.164  0.786E-01  0.786E-01
  -1.154  0.770E-01  0.770E-01
  -1.144  0.755E-01  0.755E-01
  -1.134  0.741E-01  0.741E-01
  -1.124  0.730E-01  0.730E-01
  -1.114  0.722E-01  0.722E-01
  -1.104  0.716E-01  0.716E-01
  -1.094  0.713E-01  0.713E-01
  -1.084  0.712E-01  0.712E-01
  -1.074  0.713E-01  0.713E-01
  -1.064  0.715E-01  0.715E-01
  -1.054  0.718E-01  0.718E-01
  -1.044  0.722E-01  0.722E-01
  -1.034  0.724E-01  0.724E-01
  -1.024  0.726E-01  0.726E-01
  -1.014  0.726E-01  0.726E-01
  -1.004  0.725E-01  0.725E-01
  -0.994  0.721E-01  0.721E-01
  -0.984  0.715E-01  0.715E-01
  -0.974  0.707E-01  0.707E-01
  -0.964  0.697E-01  0.697E-01
  -0.954  0.685E-01  0.685E-01
  -0.944  0.673E-01  0.673E-01
  -0.934  0.661E-01  0.661E-01
  -0.924  0.649E-01  0.649E-01
  -0.914  0.638E-01  0.638E-01
  -0.904  0.629E-01  0.629E-01
  -0.894  0.623E-01  0.623E-01
  -0.884  0.620E-01  0.620E-01
  -0.874  0.620E-01  0.620E-01
  -0.864  0.623E-01  0.623E-01
  -0.854  0.630E-01  0.630E-01
  -0.844  0.640E-01  0.640E-01
  -0.834  0.654E-01  0.654E-01
  -0.824  0.670E-01  0.670E-01
  -0.814  0.688E-01  0.688E-01
  -0.804  0.707E-01  0.707E-01
  -0.794  0.728E-01  0.728E-01
  -0.784  0.748E-01  0.748E-01
  -0.774  0.767E-01  0.767E-01
  -0.764  0.785E-01  0.785E-01
  -0.754  0.800E-01  0.800E-01
  -0.744  0.811E-01  0.811E-01
  -0.734  0.819E-01  0.819E-01
  -0.724  0.823E-01  0.823E-01
  -0.714  0.821E-01  0.821E-01
  -0.704  0.815E-01  0.815E-01
  -0.694  0.803E-01  0.803E-01
  -0.684  0.786E-01  0.786E-01
  -0.674  0.764E-01  0.764E-01
  -0.664  0.737E-01  0.737E-01
  -0.654  0.707E-01  0.707E-01
  -0.644  0.673E-01  0.673E-01
  -0.634  0.638E-01  0.638E-01
  -0.624  0.600E-01  0.600E-01
  -0.614  0.562E-01  0.562E-01
  -0.604  0.525E-01  0.525E-01
  -0.594  0.490E-01  0.490E-01
  -0.584  0.458E-01  0.458E-01
  -0.574  0.430E-01  0.430E-01
  -0.564  0.407E-01  0.407E-01
  -0.554  0.390E-01  0.390E-01
  -0.544  0.380E-01  0.380E-01
  -0.534  0.376E-01  0.376E-01
  -0.524  0.380E-01  0.380E-01
  -0.514  0.392E-01  0.392E-01
  -0.504  0.411E-01  0.411E-01
  -0.494  0.437E-01  0.437E-01
  -0.484  0.469E-01  0.469E-01
  -0.474  0.507E-01  0.507E-01
  -0.464  0.550E-01  0.550E-01
  -0.454  0.596E-01  0.596E-01
  -0.444  0.643E-01  0.643E-01
  -0.434  0.692E-01  0.692E-01
  -0.424  0.739E-01  0.739E-01
  -0.414  0.783E-01  0.783E-01
  -0.404  0.824E-01  0.824E-01
  -0.394  0.858E-01  0.858E-01
  -0.384  0.886E-01  0.886E-01
  -0.374  0.905E-01  0.905E-01
  -0.364  0.916E-01  0.916E-01
  -0.354  0.918E-01  0.918E-01
  -0.344  0.911E-01  0.911E-01
  -0.334  0.894E-01  0.894E-01
  -0.324  0.869E-01  0.869E-01
  -0.314  0.836E-01  0.836E-01
  -0.304  0.796E-01  0.796E-01
  -0.294  0.751E-01  0.751E-01
  -0.284  0.701E-01  0.701E-01
  -0.274  0.649E-01  0.649E-01
  -0.264  0.595E-01  0.595E-01
  -0.254  0.542E-01  0.542E-01
  -0.244  0.490E-01  0.490E-01
  -0.234  0.441E-01  0.441E-01
  -0.224  0.396E-01  0.396E-01
  -0.214  0.357E-01  0.357E-01
  -0.204  0.323E-01  0.323E-01
  -0.194  0.295E-01  0.295E-01
  -0.184  0.275E-01  0.275E-01
  -0.174  0.262E-01  0.262E-01
  -0.164  0.256E-01  0.256E-01
  -0.154  0.258E-01  0.258E-01
  -0.144  0.268E-01  0.268E-01
  -0.134  0.284E-01  0.284E-01
  -0.124  0.308E-01  0.308E-01
  -0.114  0.338E-01  0.338E-01
  -0.104  0.373E-01  0.373E-01
  -0.094  0.414E-01  0.414E-01
  -0.084  0.458E-01  0.458E-01
  -0.074  0.505E-01  0.505E-01
  -0.064  0.554E-01  0.554E-01
  -0.054  0.603E-01  0.603E-01
  -0.044  0.652E-01  0.652E-01
  -0.034  0.698E-01  0.698E-01
  -0.024  0.741E-01  0.741E-01
  -0.014  0.780E-01  0.780E-01
  -0.004  0.812E-01  0.812E-01
   0.006  0.838E-01  0.838E-01
   0.016  0.857E-01  0.857E-01
   0.026  0.868E-01  0.868E-01
   0.036  0.870E-01  0.870E-01
   0.046  0.864E-01  0.864E-01
   0.056  0.851E-01  0.851E-01
   0.066  0.829E-01  0.829E-01
   0.076  0.801E-01  0.801E-01
   0.086  0.766E-01  0.766E-01
   0.096  0.727E-01  0.727E-01
   0.106  0.683E-01  0.683E-01
   0.116  0.638E-01  0.638E-01
   0.126  0.591E-01  0.591E-01
   0.136  0.544E-01  0.544E-01
   0.146  0.498E-01  0.498E-01
   0.156  0.455E-01  0.455E-01
   0.166  0.415E-01  0.415E-01
   0.176  0.379E-01  0.379E-01
   0.186  0.349E-01  0.349E-01
   0.196  0.324E-01  0.324E-01
   0.206  0.306E-01  0.306E-01
   0.216  0.294E-01  0.294E-01
   0.226  0.288E-01  0.288E-01
   0.236  0.288E-01  0.288E-01
   0.246  0.295E-01  0.295E-01
   0.256  0.307E-01  0.307E-01
   0.266  0.324E-01  0.324E-01
   0.276  0.345E-01  0.345E-01
   0.286  0.370E-01  0.370E-01
   0.296  0.398E-01  0.398E-01
   0.306  0.428E-01  0.428E-01
   0.316  0.458E-01  0.458E-01
   0.326  0.489E-01  0.489E-01
   0.336  0.518E-01  0.518E-01
   0.346  0.546E-01  0.546E-01
   0.356  0.572E-01  0.572E-01
   0.366  0.594E-01  0.594E-01
   0.376  0.613E-01  0.613E-01
   0.386  0.629E-01  0.629E-01
   0.396  0.640E-01  0.640E-01
   0.406  0.648E-01  0.648E-01
   0.416  0.652E-01  0.652E-01
   0.426  0.652E-01  0.652E-01
   0.436  0.650E-01  0.650E-01
   0.446  0.645E-01  0.645E-01
   0.456  0.637E-01  0.637E-01
   0.466  0.628E-01  0.628E-01
   0.476  0.617E-01  0.617E-01
   0.486  0.605E-01  0.605E-01
   0.496  0.592E-01  0.592E-01
   0.506  0.579E-01  0.579E-01
   0.516  0.565E-01  0.565E-01
   0.526  0.551E-01  0.551E-01
   0.536  0.538E-01  0.538E-01
   0.546  0.524E-01  0.524E-01
   0.556  0.511E-01  0.511E-01
   0.566  0.499E-01  0.499E-01
   0.576  0.487E-01  0.487E-01
   0.586  0.476E-01  0.476E-01
   0.596  0.467E-01  0.467E-01
   0.606  0.459E-01  0.459E-01
   0.616  0.454E-01  0.454E-01
   0.626  0.450E-01  0.450E-01
   0.636  0.448E-01  0.448E-01
   0.646  0.450E-01  0.450E-01
   0.656  0.453E-01  0.453E-01
   0.666  0.459E-01  0.459E-01
   0.676  0.467E-01  0.467E-01
   0.686  0.477E-01  0.477E-01
   0.696  0.489E-01  0.489E-01
   0.706  0.501E-01  0.501E-01
   0.716  0.513E-01  0.513E-01
   0.726  0.525E-01  0.525E-01
   0.736  0.536E-01  0.536E-01
   0.746  0.545E-01  0.545E-01
   0.756  0.552E-01  0.552E-01
   0.766  0.555E-01  0.555E-01
   0.776  0.556E-01  0.556E-01
   0.786  0.552E-01  0.552E-01
   0.796  0.545E-01  0.545E-01
   0.806  0.535E-01  0.535E-01
   0.816  0.521E-01  0.521E-01
   0.826  0.504E-01  0.504E-01
   0.836  0.484E-01  0.484E-01
   0.846  0.464E-01  0.464E-01
   0.856  0.442E-01  0.442E-01
   0.866  0.420E-01  0.420E-01
   0.876  0.398E-01  0.398E-01
   0.886  0.379E-01  0.379E-01
   0.896  0.361E-01  0.361E-01
   0.906  0.347E-01  0.347E-01
   0.916  0.336E-01  0.336E-01
   0.926  0.330E-01  0.330E-01
   0.936  0.327E-01  0.327E-01
   0.946  0.330E-01  0.330E-01
   0.956  0.337E-01  0.337E-01
   0.966  0.348E-01  0.348E-01
   0.976  0.364E-01  0.364E-01
   0.986  0.383E-01  0.383E-01
   0.996  0.405E-01  0.405E-01
   1.006  0.431E-01  0.431E-01
   1.016  0.458E-01  0.458E-01
   1.026  0.486E-01  0.486E-01
   1.036  0.515E-01  0.515E-01
   1.046  0.543E-01  0.543E-01
   1.056  0.571E-01  0.571E-01
   1.066  0.597E-01  0.597E-01
   1.076  0.621E-01  0.621E-01
   1.086  0.642E-01  0.642E-01
   1.096  0.660E-01  0.660E-01
   1.106  0.675E-01  0.675E-01
   1.116  0.686E-01  0.686E-01
   1.126  0.693E-01  0.693E-01
   1.136  0.697E-01  0.697E-01
   1.146  0.696E-01  0.696E-01
   1.156  0.692E-01  0.692E-01
   1.166  0.684E-01  0.684E-01
   1.176  0.673E-01  0.673E-01
   1.186  0.658E-01  0.658E-01
   1.196  0.640E-01  0.640E-01
   1.206  0.618E-01  0.618E-01
   1.216  0.595E-01  0.595E-01
   1.226  0.569E-01  0.569E-01
   1.236  0.541E-01  0.541E-01
   1.246  0.511E-01  0.511E-01
   1.256  0.480E-01  0.480E-01
   1.266  0.448E-01  0.448E-01
   1.276  0.416E-01  0.416E-01
   1.286  0.384E-01  0.384E-01
   1.296  0.352E-01  0.352E-01
   1.306  0.322E-01  0.322E-01
   1.316  0.293E-01  0.293E-01
   1.326  0.266E-01  0.266E-01
   1.336  0.242E-01  0.242E-01
   1.346  0.221E-01  0.221E-01
   1.356  0.203E-01  0.203E-01
   1.366  0.189E-01  0.189E-01
   1.376  0.179E-01  0.179E-01
   1.386  0.173E-01  0.173E-01
   1.396  0.172E-01  0.172E-01
   1.406  0.176E-01  0.176E-01
   1.416  0.186E-01  0.186E-01
   1.426  0.200E-01  0.200E-01
   1.436  0.219E-01  0.219E-01
   1.446  0.242E-01  0.242E-01
   1.456  0.271E-01  0.271E-01
   1.466  0.303E-01  0.303E-01
   1.476  0.340E-01  0.340E-01
   1.486  0.379E-01  0.379E-01
   1.496  0.421E-01  0.421E-01
   1.506  0.465E-01  0.465E-01
   1.516  0.510E-01  0.510E-01
   1.526  0.554E-01  0.554E-01
   1.536  0.598E-01  0.598E-01
   1.546  0.639E-01  0.639E-01
   1.556  0.678E-01  0.678E-01
   1.566  0.713E-01  0.713E-01
   1.576  0.743E-01  0.743E-01
   1.586  0.768E-01  0.768E-01
   1.596  0.787E-01  0.787E-01
   1.606  0.800E-01  0.800E-01
   1.616  0.806E-01  0.806E-01
   1.626  0.805E-01  0.805E-01
   1.636  0.798E-01  0.798E-01
   1.646  0.784E-01  0.784E-01
   1.656  0.764E-01  0.764E-01
   1.666  0.738E-01  0.738E-01
   1.676  0.708E-01  0.708E-01
   1.686  0.673E-01  0.673E-01
   1.696  0.636E-01  0.636E-01
   1.706  0.595E-01  0.595E-01
   1.716  0.553E-01  0.553E-01
   1.726  0.510E-01  0.510E-01
   1.736  0.468E-01  0.468E-01
   1.746  0.426E-01  0.426E-01
   1.756  0.385E-01  0.385E-01
   1.766  0.347E-01  0.347E-01
   1.776  0.311E-01  0.311E-01
   1.786  0.279E-01  0.279E-01
   1.796  0.250E-01  0.250E-01
   1.806  0.225E-01  0.225E-01
   1.816  0.205E-01  0.205E-01
   1.826  0.188E-01  0.188E-01
   1.836  0.176E-01  0.176E-01
   1.846  0.168E-01  0.168E-01
   1.856  0.164E-01  0.164E-01
   1.866  0.165E-01  0.165E-01
   1.876  0.169E-01  0.169E-01
   1.886  0.176E-01  0.176E-01
   1.896  0.187E-01  0.187E-01
   1.906  0.200E-01  0.200E-01
   1.916  0.216E-01  0.216E-01
   1.926  0.234E-01  0.234E-01
   1.936  0.253E-01  0.253E-01
   1.946  0.274E-01  0.274E-01
   1.956  0.296E-01  0.296E-01
   1.966  0.319E-01  0.319E-01
   1.976  0.342E-01  0.342E-01
   1.986  0.366E-01  0.366E-01
   1.996  0.390E-01  0.390E-01
   2.006  0.414E-01  0.414E-01
   2.016  0.438E-01  0.438E-01
   2.026  0.462E-01  0.462E-01
   2.036  0.487E-01  0.487E-01
   2.046  0.511E-01  0.511E-01
   2.056  0.536E-01  0.536E-01
   2.066  0.560E-01  0.560E-01
   2.076  0.583E-01  0.583E-01
   2.086  0.606E-01  0.606E-01
   2.096  0.628E-01  0.628E-01
   2.106  0.647E-01  0.647E-01
   2.116  0.664E-01  0.664E-01
   2.126  0.678E-01  0.678E-01
   2.136  0.689E-01  0.689E-01
   2.146  0.696E-01  0.696E-01
   2.156  0.698E-01  0.698E-01
   2.166  0.695E-01  0.695E-01
   2.176  0.687E-01  0.687E-01
   2.186  0.675E-01  0.675E-01
   2.196  0.657E-01  0.657E-01
   2.206  0.635E-01  0.635E-01
   2.216  0.609E-01  0.609E-01
   2.226  0.580E-01  0.580E-01
   2.236  0.549E-01  0.549E-01
   2.246  0.515E-01  0.515E-01
   2.256  0.481E-01  0.481E-01
   2.266  0.448E-01  0.448E-01
   2.276  0.416E-01  0.416E-01
   2.286  0.385E-01  0.385E-01
   2.296  0.358E-01  0.358E-01
   2.306  0.333E-01  0.333E-01
   2.316  0.313E-01  0.313E-01
   2.326  0.296E-01  0.296E-01
   2.336  0.283E-01  0.283E-01
   2.346  0.274E-01  0.274E-01
   2.356  0.269E-01  0.269E-01
   2.366  0.268E-01  0.268E-01
   2.376  0.269E-01  0.269E-01
   2.386  0.272E-01  0.272E-01
   2.396  0.277E-01  0.277E-01
   2.406  0.284E-01  0.284E-01
   2.416  0.291E-01  0.291E-01
   2.426  0.299E-01  0.299E-01
   2.436  0.306E-01  0.306E-01
   2.446  0.312E-01  0.312E-01
   2.456  0.318E-01  0.318E-01
   2.466  0.323E-01  0.323E-01
   2.476  0.327E-01  0.327E-01
   2.486  0.331E-01  0.331E-01
   2.496  0.333E-01  0.333E-01
   2.506  0.335E-01  0.335E-01
   2.516  0.337E-01  0.337E-01
   2.526  0.339E-01  0.339E-01
   2.536  0.342E-01  0.342E-01
   2.546  0.345E-01  0.345E-01
   2.556  0.349E-01  0.349E-01
   2.566  0.353E-01  0.353E-01
   2.576  0.359E-01  0.359E-01
   2.586  0.366E-01  0.366E-01
   2.596  0.374E-01  0.374E-01
   2.606  0.382E-01  0.382E-01
   2.616  0.392E-01  0.392E-01
   2.626  0.402E-01  0.402E-01
   2.636  0.413E-01  0.413E-01
   2.646  0.424E-01  0.424E-01
   2.656  0.436E-01  0.436E-01
   2.666  0.447E-01  0.447E-01
   2.676  0.458E-01  0.458E-01
   2.686  0.469E-01  0.469E-01
   2.696  0.480E-01  0.480E-01
   2.706  0.490E-01  0.490E-01
   2.716  0.499E-01  0.499E-01
   2.726  0.508E-01  0.508E-01
   2.736  0.515E-01  0.515E-01
   2.746  0.522E-01  0.522E-01
   2.756  0.528E-01  0.528E-01
   2.766  0.532E-01  0.532E-01
   2.776  0.535E-01  0.535E-01
   2.786  0.537E-01  0.537E-01
   2.796  0.537E-01  0.537E-01
   2.806  0.536E-01  0.536E-01
   2.816  0.533E-01  0.533E-01
   2.826  0.528E-01  0.528E-01
   2.836  0.522E-01  0.522E-01
   2.846  0.515E-01  0.515E-01
   2.856  0.506E-01  0.506E-01
   2.866  0.495E-01  0.495E-01
   2.876  0.484E-01  0.484E-01
   2.886  0.471E-01  0.471E-01
   2.896  0.457E-01  0.457E-01
   2.906  0.442E-01  0.442E-01
   2.916  0.426E-01  0.426E-01
   2.926  0.409E-01  0.409E-01
   2.936  0.393E-01  0.393E-01
   2.946  0.376E-01  0.376E-01
   2.956  0.359E-01  0.359E-01
   2.966  0.343E-01  0.343E-01
   2.976  0.328E-01  0.328E-01
   2.986  0.314E-01  0.314E-01
   2.996  0.302E-01  0.302E-01
   3.006  0.291E-01  0.291E-01
   3.016  0.282E-01  0.282E-01
   3.026  0.275E-01  0.275E-01
   3.036  0.270E-01  0.270E-01
   3.046  0.267E-01  0.267E-01
   3.056  0.266E-01  0.266E-01
   3.066  0.266E-01  0.266E-01
   3.076  0.268E-01  0.268E-01
   3.086  0.270E-01  0.270E-01
   3.096  0.273E-01  0.273E-01
   3.106  0.276E-01  0.276E-01
   3.116  0.279E-01  0.279E-01
   3.126  0.281E-01  0.281E-01
   3.136  0.282E-01  0.282E-01
   3.146  0.281E-01  0.281E-01
   3.156  0.280E-01  0.280E-01
   3.166  0.277E-01  0.277E-01
   3.176  0.273E-01  0.273E-01
   3.186  0.268E-01  0.268E-01
   3.196  0.262E-01  0.262E-01
   3.206  0.255E-01  0.255E-01
   3.216  0.249E-01  0.249E-01
   3.226  0.243E-01  0.243E-01
   3.236  0.238E-01  0.238E-01
   3.246  0.234E-01  0.234E-01
   3.256  0.233E-01  0.233E-01
   3.266  0.233E-01  0.233E-01
   3.276  0.237E-01  0.237E-01
   3.286  0.243E-01  0.243E-01
   3.296  0.253E-01  0.253E-01
   3.306  0.266E-01  0.266E-01
   3.316  0.282E-01  0.282E-01
   3.326  0.302E-01  0.302E-01
   3.336  0.325E-01  0.325E-01
   3.346  0.352E-01  0.352E-01
   3.356  0.382E-01  0.382E-01
   3.366  0.416E-01  0.416E-01
   3.376  0.452E-01  0.452E-01
   3.386  0.491E-01  0.491E-01
   3.396  0.533E-01  0.533E-01
   3.406  0.577E-01  0.577E-01
   3.416  0.623E-01  0.623E-01
   3.426  0.670E-01  0.670E-01
   3.436  0.718E-01  0.718E-01
   3.446  0.767E-01  0.767E-01
   3.456  0.814E-01  0.814E-01
   3.466  0.860E-01  0.860E-01
   3.476  0.904E-01  0.904E-01
   3.486  0.945E-01  0.945E-01
   3.496  0.981E-01  0.981E-01
   3.506  0.101E+00  0.101E+00
   3.516  0.104E+00  0.104E+00
   3.526  0.106E+00  0.106E+00
   3.536  0.107E+00  0.107E+00
   3.546  0.107E+00  0.107E+00
   3.556  0.107E+00  0.107E+00
   3.566  0.106E+00  0.106E+00
   3.576  0.104E+00  0.104E+00
   3.586  0.102E+00  0.102E+00
   3.596  0.985E-01  0.985E-01
   3.606  0.949E-01  0.949E-01
   3.616  0.908E-01  0.908E-01
   3.626  0.863E-01  0.863E-01
   3.636  0.816E-01  0.816E-01
   3.646  0.768E-01  0.768E-01
   3.656  0.718E-01  0.718E-01
   3.666  0.669E-01  0.669E-01
   3.676  0.621E-01  0.621E-01
   3.686  0.575E-01  0.575E-01
   3.696  0.532E-01  0.532E-01
   3.706  0.491E-01  0.491E-01
   3.716  0.453E-01  0.453E-01
   3.726  0.419E-01  0.419E-01
   3.736  0.389E-01  0.389E-01
   3.746  0.363E-01  0.363E-01
   3.756  0.341E-01  0.341E-01
   3.766  0.322E-01  0.322E-01
   3.776  0.307E-01  0.307E-01
   3.786  0.296E-01  0.296E-01
   3.796  0.287E-01  0.287E-01
   3.806  0.282E-01  0.282E-01
   3.816  0.278E-01  0.278E-01
   3.826  0.277E-01  0.277E-01
   3.836  0.277E-01  0.277E-01
   3.846  0.278E-01  0.278E-01
   3.856  0.280E-01  0.280E-01
   3.866  0.283E-01  0.283E-01
   3.876  0.286E-01  0.286E-01
   3.886  0.289E-01  0.289E-01
   3.896  0.293E-01  0.293E-01
   3.906  0.298E-01  0.298E-01
   3.916  0.303E-01  0.303E-01
   3.926  0.309E-01  0.309E-01
   3.936  0.317E-01  0.317E-01
   3.946  0.327E-01  0.327E-01
   3.956  0.338E-01  0.338E-01
   3.966  0.352E-01  0.352E-01
   3.976  0.368E-01  0.368E-01
   3.986  0.387E-01  0.387E-01
   3.996  0.409E-01  0.409E-01
   4.006  0.433E-01  0.433E-01
   4.016  0.459E-01  0.459E-01
   4.026  0.487E-01  0.487E-01
   4.036  0.516E-01  0.516E-01
   4.046  0.546E-01  0.546E-01
   4.056  0.575E-01  0.575E-01
   4.066  0.603E-01  0.603E-01
   4.076  0.629E-01  0.629E-01
   4.086  0.653E-01  0.653E-01
   4.096  0.673E-01  0.673E-01
   4.106  0.689E-01  0.689E-01
   4.116  0.700E-01  0.700E-01
   4.126  0.707E-01  0.707E-01
   4.136  0.708E-01  0.708E-01
   4.146  0.705E-01  0.705E-01
   4.156  0.696E-01  0.696E-01
   4.166  0.684E-01  0.684E-01
   4.176  0.667E-01  0.667E-01
   4.186  0.647E-01  0.647E-01
   4.196  0.624E-01  0.624E-01
   4.206  0.599E-01  0.599E-01
   4.216  0.573E-01  0.573E-01
   4.226  0.546E-01  0.546E-01
   4.236  0.518E-01  0.518E-01
   4.246  0.491E-01  0.491E-01
   4.256  0.465E-01  0.465E-01
   4.266  0.440E-01  0.440E-01
   4.276  0.416E-01  0.416E-01
   4.286  0.393E-01  0.393E-01
   4.296  0.372E-01  0.372E-01
   4.306  0.353E-01  0.353E-01
   4.316  0.335E-01  0.335E-01
   4.326  0.318E-01  0.318E-01
   4.336  0.302E-01  0.302E-01
   4.346  0.287E-01  0.287E-01
   4.356  0.272E-01  0.272E-01
   4.366  0.257E-01  0.257E-01
   4.376  0.243E-01  0.243E-01
   4.386  0.229E-01  0.229E-01
   4.396  0.214E-01  0.214E-01
   4.406  0.200E-01  0.200E-01
   4.416  0.185E-01  0.185E-01
   4.426  0.171E-01  0.171E-01
   4.436  0.156E-01  0.156E-01
   4.446  0.142E-01  0.142E-01
   4.456  0.129E-01  0.129E-01
   4.466  0.116E-01  0.116E-01
   4.476  0.105E-01  0.105E-01
   4.486  0.943E-02  0.943E-02
   4.496  0.853E-02  0.853E-02
   4.506  0.780E-02  0.780E-02
   4.516  0.727E-02  0.727E-02
   4.526  0.695E-02  0.695E-02
   4.536  0.687E-02  0.687E-02
   4.546  0.706E-02  0.706E-02
   4.556  0.754E-02  0.754E-02
   4.566  0.834E-02  0.834E-02
   4.576  0.946E-02  0.946E-02
   4.586  0.109E-01  0.109E-01
   4.596  0.128E-01  0.128E-01
   4.606  0.151E-01  0.151E-01
   4.616  0.177E-01  0.177E-01
   4.626  0.207E-01  0.207E-01
   4.636  0.242E-01  0.242E-01
   4.646  0.279E-01  0.279E-01
   4.656  0.321E-01  0.321E-01
   4.666  0.364E-01  0.364E-01
   4.676  0.411E-01  0.411E-01
   4.686  0.458E-01  0.458E-01
   4.696  0.506E-01  0.506E-01
   4.706  0.553E-01  0.553E-01
   4.716  0.599E-01  0.599E-01
   4.726  0.642E-01  0.642E-01
   4.736  0.681E-01  0.681E-01
   4.746  0.715E-01  0.715E-01
   4.756  0.744E-01  0.744E-01
   4.766  0.765E-01  0.765E-01
   4.776  0.779E-01  0.779E-01
   4.786  0.785E-01  0.785E-01
   4.796  0.784E-01  0.784E-01
   4.806  0.774E-01  0.774E-01
   4.816  0.756E-01  0.756E-01
   4.826  0.731E-01  0.731E-01
   4.836  0.700E-01  0.700E-01
   4.846  0.663E-01  0.663E-01
   4.856  0.622E-01  0.622E-01
   4.866  0.577E-01  0.577E-01
   4.876  0.530E-01  0.530E-01
   4.886  0.482E-01  0.482E-01
   4.896  0.433E-01  0.433E-01
   4.906  0.386E-01  0.386E-01
   4.916  0.340E-01  0.340E-01
   4.926  0.296E-01  0.296E-01
   4.936  0.256E-01  0.256E-01
   4.946  0.218E-01  0.218E-01
   4.956  0.185E-01  0.185E-01
   4.966  0.154E-01  0.154E-01
   4.976  0.128E-01  0.128E-01
   4.986  0.105E-01  0.105E-01
   4.996  0.859E-02  0.859E-02
   5.006  0.697E-02  0.697E-02
   5.016  0.564E-02  0.564E-02
   5.026  0.458E-02  0.458E-02
   5.036  0.375E-02  0.375E-02
   5.046  0.314E-02  0.314E-02
   5.056  0.272E-02  0.272E-02
   5.066  0.247E-02  0.247E-02
   5.076  0.238E-02  0.238E-02
   5.086  0.242E-02  0.242E-02
   5.096  0.259E-02  0.259E-02
   5.106  0.287E-02  0.287E-02
   5.116  0.327E-02  0.327E-02
   5.126  0.376E-02  0.376E-02
   5.136  0.434E-02  0.434E-02
   5.146  0.501E-02  0.501E-02
   5.156  0.575E-02  0.575E-02
   5.166  0.656E-02  0.656E-02
   5.176  0.741E-02  0.741E-02
   5.186  0.830E-02  0.830E-02
   5.196  0.922E-02  0.922E-02
   5.206  0.101E-01  0.101E-01
   5.216  0.110E-01  0.110E-01
   5.226  0.119E-01  0.119E-01
   5.236  0.128E-01  0.128E-01
   5.246  0.136E-01  0.136E-01
   5.256  0.143E-01  0.143E-01
   5.266  0.150E-01  0.150E-01
   5.276  0.157E-01  0.157E-01
   5.286  0.163E-01  0.163E-01
   5.296  0.169E-01  0.169E-01
   5.306  0.175E-01  0.175E-01
   5.316  0.181E-01  0.181E-01
   5.326  0.189E-01  0.189E-01
   5.336  0.197E-01  0.197E-01
   5.346  0.206E-01  0.206E-01
   5.356  0.218E-01  0.218E-01
   5.366  0.231E-01  0.231E-01
   5.376  0.247E-01  0.247E-01
   5.386  0.265E-01  0.265E-01
   5.396  0.285E-01  0.285E-01
   5.406  0.307E-01  0.307E-01
   5.416  0.331E-01  0.331E-01
   5.426  0.357E-01  0.357E-01
   5.436  0.383E-01  0.383E-01
   5.446  0.409E-01  0.409E-01
   5.456  0.435E-01  0.435E-01
   5.466  0.459E-01  0.459E-01
   5.476  0.482E-01  0.482E-01
   5.486  0.501E-01  0.501E-01
   5.496  0.516E-01  0.516E-01
   5.506  0.527E-01  0.527E-01
   5.516  0.534E-01  0.534E-01
   5.526  0.535E-01  0.535E-01
   5.536  0.531E-01  0.531E-01
   5.546  0.522E-01  0.522E-01
   5.556  0.508E-01  0.508E-01
   5.566  0.490E-01  0.490E-01
   5.576  0.468E-01  0.468E-01
   5.586  0.443E-01  0.443E-01
   5.596  0.415E-01  0.415E-01
   5.606  0.386E-01  0.386E-01
   5.616  0.355E-01  0.355E-01
   5.626  0.325E-01  0.325E-01
   5.636  0.295E-01  0.295E-01
   5.646  0.267E-01  0.267E-01
   5.656  0.240E-01  0.240E-01
   5.666  0.215E-01  0.215E-01
   5.676  0.193E-01  0.193E-01
   5.686  0.173E-01  0.173E-01
   5.696  0.155E-01  0.155E-01
   5.706  0.139E-01  0.139E-01
   5.716  0.126E-01  0.126E-01
   5.726  0.114E-01  0.114E-01
   5.736  0.104E-01  0.104E-01
   5.746  0.961E-02  0.961E-02
   5.756  0.888E-02  0.888E-02
   5.766  0.824E-02  0.824E-02
   5.776  0.767E-02  0.767E-02
   5.786  0.714E-02  0.714E-02
   5.796  0.665E-02  0.665E-02
   5.806  0.618E-02  0.618E-02
   5.816  0.572E-02  0.572E-02
   5.826  0.527E-02  0.527E-02
   5.836  0.483E-02  0.483E-02
   5.846  0.439E-02  0.439E-02
   5.856  0.396E-02  0.396E-02
   5.866  0.355E-02  0.355E-02
   5.876  0.315E-02  0.315E-02
   5.886  0.277E-02  0.277E-02
   5.896  0.242E-02  0.242E-02
   5.906  0.210E-02  0.210E-02
   5.916  0.182E-02  0.182E-02
   5.926  0.157E-02  0.157E-02
   5.936  0.137E-02  0.137E-02
   5.946  0.121E-02  0.121E-02
   5.956  0.111E-02  0.111E-02
   5.966  0.107E-02  0.107E-02
   5.976  0.110E-02  0.110E-02
   5.986  0.121E-02  0.121E-02
   5.996  0.142E-02  0.142E-02
   6.006  0.176E-02  0.176E-02
   6.016  0.224E-02  0.224E-02
   6.026  0.292E-02  0.292E-02
   6.036  0.382E-02  0.382E-02
   6.046  0.501E-02  0.501E-02
   6.056  0.654E-02  0.654E-02
   6.066  0.848E-02  0.848E-02
   6.076  0.109E-01  0.109E-01
   6.086  0.139E-01  0.139E-01
   6.096  0.176E-01  0.176E-01
   6.106  0.221E-01  0.221E-01
   6.116  0.274E-01  0.274E-01
   6.126  0.337E-01  0.337E-01
   6.136  0.411E-01  0.411E-01
   6.146  0.497E-01  0.497E-01
   6.156  0.595E-01  0.595E-01
   6.166  0.706E-01  0.706E-01
   6.176  0.829E-01  0.829E-01
   6.186  0.966E-01  0.966E-01
   6.196  0.112E+00  0.112E+00
   6.206  0.128E+00  0.128E+00
   6.216  0.145E+00  0.145E+00
   6.226  0.163E+00  0.163E+00
   6.236  0.181E+00  0.181E+00
   6.246  0.200E+00  0.200E+00
   6.256  0.219E+00  0.219E+00
   6.266  0.238E+00  0.238E+00
   6.276  0.257E+00  0.257E+00
   6.286  0.275E+00  0.275E+00
   6.296  0.291E+00  0.291E+00
   6.306  0.307E+00  0.307E+00
   6.316  0.320E+00  0.320E+00
   6.326  0.332E+00  0.332E+00
   6.336  0.343E+00  0.343E+00
   6.346  0.351E+00  0.351E+00
   6.356  0.357E+00  0.357E+00
   6.366  0.361E+00  0.361E+00
   6.376  0.363E+00  0.363E+00
   6.386  0.364E+00  0.364E+00
   6.396  0.363E+00  0.363E+00
   6.406  0.360E+00  0.360E+00
   6.416  0.357E+00  0.357E+00
   6.426  0.353E+00  0.353E+00
   6.436  0.347E+00  0.347E+00
   6.446  0.342E+00  0.342E+00
   6.456  0.336E+00  0.336E+00
   6.466  0.329E+00  0.329E+00
   6.476  0.323E+00  0.323E+00
   6.486  0.316E+00  0.316E+00
   6.496  0.310E+00  0.310E+00
   6.506  0.303E+00  0.303E+00
   6.516  0.297E+00  0.297E+00
   6.526  0.290E+00  0.290E+00
   6.536  0.283E+00  0.283E+00
   6.546  0.276E+00  0.276E+00
   6.556  0.268E+00  0.268E+00
   6.566  0.261E+00  0.261E+00
   6.576  0.253E+00  0.253E+00
   6.586  0.245E+00  0.245E+00
   6.596  0.237E+00  0.237E+00
   6.606  0.229E+00  0.229E+00
   6.616  0.221E+00  0.221E+00
   6.626  0.212E+00  0.212E+00
   6.636  0.204E+00  0.204E+00
   6.646  0.196E+00  0.196E+00
   6.656  0.188E+00  0.188E+00
   6.666  0.181E+00  0.181E+00
   6.676  0.174E+00  0.174E+00
   6.686  0.167E+00  0.167E+00
   6.696  0.161E+00  0.161E+00
   6.706  0.155E+00  0.155E+00
   6.716  0.150E+00  0.150E+00
   6.726  0.145E+00  0.145E+00
   6.736  0.141E+00  0.141E+00
   6.746  0.137E+00  0.137E+00
   6.756  0.134E+00  0.134E+00
   6.766  0.131E+00  0.131E+00
   6.776  0.129E+00  0.129E+00
   6.786  0.127E+00  0.127E+00
   6.796  0.126E+00  0.126E+00
   6.806  0.125E+00  0.125E+00
   6.816  0.125E+00  0.125E+00
   6.826  0.125E+00  0.125E+00
   6.836  0.125E+00  0.125E+00
   6.846  0.126E+00  0.126E+00
   6.856  0.128E+00  0.128E+00
   6.866  0.130E+00  0.130E+00
   6.876  0.133E+00  0.133E+00
   6.886  0.136E+00  0.136E+00
   6.896  0.140E+00  0.140E+00
   6.906  0.144E+00  0.144E+00
   6.916  0.148E+00  0.148E+00
   6.926  0.152E+00  0.152E+00
   6.936  0.157E+00  0.157E+00
   6.946  0.162E+00  0.162E+00
   6.956  0.166E+00  0.166E+00
   6.966  0.170E+00  0.170E+00
   6.976  0.174E+00  0.174E+00
   6.986  0.176E+00  0.176E+00
   6.996  0.178E+00  0.178E+00
   7.006  0.179E+00  0.179E+00
   7.016  0.179E+00  0.179E+00
   7.026  0.177E+00  0.177E+00
   7.036  0.174E+00  0.174E+00
   7.046  0.170E+00  0.170E+00
   7.056  0.165E+00  0.165E+00
   7.066  0.158E+00  0.158E+00
   7.076  0.151E+00  0.151E+00
   7.086  0.143E+00  0.143E+00
   7.096  0.134E+00  0.134E+00
   7.106  0.124E+00  0.124E+00
   7.116  0.114E+00  0.114E+00
   7.126  0.104E+00  0.104E+00
   7.136  0.940E-01  0.940E-01
   7.146  0.843E-01  0.843E-01
   7.156  0.751E-01  0.751E-01
   7.166  0.664E-01  0.664E-01
   7.176  0.583E-01  0.583E-01
   7.186  0.510E-01  0.510E-01
   7.196  0.445E-01  0.445E-01
   7.206  0.388E-01  0.388E-01
   7.216  0.339E-01  0.339E-01
   7.226  0.298E-01  0.298E-01
   7.236  0.265E-01  0.265E-01
   7.246  0.239E-01  0.239E-01
   7.256  0.220E-01  0.220E-01
   7.266  0.209E-01  0.209E-01
   7.276  0.203E-01  0.203E-01
   7.286  0.204E-01  0.204E-01
   7.296  0.211E-01  0.211E-01
   7.306  0.225E-01  0.225E-01
   7.316  0.244E-01  0.244E-01
   7.326  0.271E-01  0.271E-01
   7.336  0.304E-01  0.304E-01
   7.346  0.345E-01  0.345E-01
   7.356  0.394E-01  0.394E-01
   7.366  0.452E-01  0.452E-01
   7.376  0.518E-01  0.518E-01
   7.386  0.595E-01  0.595E-01
   7.396  0.681E-01  0.681E-01
   7.406  0.776E-01  0.776E-01
   7.416  0.881E-01  0.881E-01
   7.426  0.994E-01  0.994E-01
   7.436  0.111E+00  0.111E+00
   7.446  0.124E+00  0.124E+00
   7.456  0.137E+00  0.137E+00
   7.466  0.151E+00  0.151E+00
   7.476  0.164E+00  0.164E+00
   7.486  0.177E+00  0.177E+00
   7.496  0.189E+00  0.189E+00
   7.506  0.201E+00  0.201E+00
   7.516  0.212E+00  0.212E+00
   7.526  0.221E+00  0.221E+00
   7.536  0.229E+00  0.229E+00
   7.546  0.236E+00  0.236E+00
   7.556  0.241E+00  0.241E+00
   7.566  0.244E+00  0.244E+00
   7.576  0.245E+00  0.245E+00
   7.586  0.244E+00  0.244E+00
   7.596  0.242E+00  0.242E+00
   7.606  0.238E+00  0.238E+00
   7.616  0.233E+00  0.233E+00
   7.626  0.226E+00  0.226E+00
   7.636  0.218E+00  0.218E+00
   7.646  0.210E+00  0.210E+00
   7.656  0.200E+00  0.200E+00
   7.666  0.190E+00  0.190E+00
   7.676  0.180E+00  0.180E+00
   7.686  0.170E+00  0.170E+00
   7.696  0.160E+00  0.160E+00
   7.706  0.150E+00  0.150E+00
   7.716  0.141E+00  0.141E+00
   7.726  0.132E+00  0.132E+00
   7.736  0.124E+00  0.124E+00
   7.746  0.117E+00  0.117E+00
   7.756  0.110E+00  0.110E+00
   7.766  0.105E+00  0.105E+00
   7.776  0.100E+00  0.100E+00
   7.786  0.968E-01  0.968E-01
   7.796  0.942E-01  0.942E-01
   7.806  0.924E-01  0.924E-01
   7.816  0.913E-01  0.913E-01
   7.826  0.910E-01  0.910E-01
   7.836  0.914E-01  0.914E-01
   7.846  0.922E-01  0.922E-01
   7.856  0.936E-01  0.936E-01
   7.866  0.953E-01  0.953E-01
   7.876  0.973E-01  0.973E-01
   7.886  0.995E-01  0.995E-01
   7.896  0.102E+00  0.102E+00
   7.906  0.104E+00  0.104E+00
   7.916  0.107E+00  0.107E+00
   7.926  0.110E+00  0.110E+00
   7.936  0.112E+00  0.112E+00
   7.946  0.115E+00  0.115E+00
   7.956  0.117E+00  0.117E+00
   7.966  0.119E+00  0.119E+00
   7.976  0.121E+00  0.121E+00
   7.986  0.123E+00  0.123E+00
   7.996  0.124E+00  0.124E+00
   8.006  0.125E+00  0.125E+00
   8.016  0.126E+00  0.126E+00
   8.026  0.126E+00  0.126E+00
   8.036  0.126E+00  0.126E+00
   8.046  0.125E+00  0.125E+00
   8.056  0.124E+00  0.124E+00
   8.066  0.123E+00  0.123E+00
   8.076  0.121E+00  0.121E+00
   8.086  0.119E+00  0.119E+00
   8.096  0.116E+00  0.116E+00
   8.106  0.114E+00  0.114E+00
   8.116  0.111E+00  0.111E+00
   8.126  0.109E+00  0.109E+00
   8.136  0.106E+00  0.106E+00
   8.146  0.103E+00  0.103E+00
   8.156  0.999E-01  0.999E-01
   8.166  0.970E-01  0.970E-01
   8.176  0.940E-01  0.940E-01
   8.186  0.909E-01  0.909E-01
   8.196  0.877E-01  0.877E-01
   8.206  0.845E-01  0.845E-01
   8.216  0.810E-01  0.810E-01
   8.226  0.775E-01  0.775E-01
   8.236  0.738E-01  0.738E-01
   8.246  0.699E-01  0.699E-01
   8.256  0.660E-01  0.660E-01
   8.266  0.620E-01  0.620E-01
   8.276  0.580E-01  0.580E-01
   8.286  0.541E-01  0.541E-01
   8.296  0.503E-01  0.503E-01
   8.306  0.467E-01  0.467E-01
   8.316  0.434E-01  0.434E-01
   8.326  0.405E-01  0.405E-01
   8.336  0.380E-01  0.380E-01
   8.346  0.360E-01  0.360E-01
   8.356  0.345E-01  0.345E-01
   8.366  0.336E-01  0.336E-01
   8.376  0.334E-01  0.334E-01
   8.386  0.337E-01  0.337E-01
   8.396  0.347E-01  0.347E-01
   8.406  0.363E-01  0.363E-01
   8.416  0.385E-01  0.385E-01
   8.426  0.412E-01  0.412E-01
   8.436  0.443E-01  0.443E-01
   8.446  0.479E-01  0.479E-01
   8.456  0.517E-01  0.517E-01
   8.466  0.558E-01  0.558E-01
   8.476  0.601E-01  0.601E-01
   8.486  0.644E-01  0.644E-01
   8.496  0.688E-01  0.688E-01
   8.506  0.731E-01  0.731E-01
   8.516  0.773E-01  0.773E-01
   8.526  0.813E-01  0.813E-01
   8.536  0.851E-01  0.851E-01
   8.546  0.886E-01  0.886E-01
   8.556  0.920E-01  0.920E-01
   8.566  0.950E-01  0.950E-01
   8.576  0.978E-01  0.978E-01
   8.586  0.100E+00  0.100E+00
   8.596  0.102E+00  0.102E+00
   8.606  0.104E+00  0.104E+00
   8.616  0.106E+00  0.106E+00
   8.626  0.107E+00  0.107E+00
   8.636  0.108E+00  0.108E+00
   8.646  0.109E+00  0.109E+00
   8.656  0.110E+00  0.110E+00
   8.666  0.110E+00  0.110E+00
   8.676  0.110E+00  0.110E+00
   8.686  0.110E+00  0.110E+00
   8.696  0.109E+00  0.109E+00
   8.706  0.108E+00  0.108E+00
   8.716  0.107E+00  0.107E+00
   8.726  0.106E+00  0.106E+00
   8.736  0.104E+00  0.104E+00
   8.746  0.102E+00  0.102E+00
   8.756  0.101E+00  0.101E+00
   8.766  0.986E-01  0.986E-01
   8.776  0.965E-01  0.965E-01
   8.786  0.943E-01  0.943E-01
   8.796  0.920E-01  0.920E-01
   8.806  0.897E-01  0.897E-01
   8.816  0.874E-01  0.874E-01
   8.826  0.851E-01  0.851E-01
   8.836  0.828E-01  0.828E-01
   8.846  0.806E-01  0.806E-01
   8.856  0.784E-01  0.784E-01
   8.866  0.764E-01  0.764E-01
   8.876  0.745E-01  0.745E-01
   8.886  0.728E-01  0.728E-01
   8.896  0.712E-01  0.712E-01
   8.906  0.699E-01  0.699E-01
   8.916  0.688E-01  0.688E-01
   8.926  0.680E-01  0.680E-01
   8.936  0.673E-01  0.673E-01
   8.946  0.668E-01  0.668E-01
   8.956  0.666E-01  0.666E-01
   8.966  0.664E-01  0.664E-01
   8.976  0.663E-01  0.663E-01
   8.986  0.662E-01  0.662E-01
   8.996  0.661E-01  0.661E-01
   9.006  0.658E-01  0.658E-01
   9.016  0.654E-01  0.654E-01
   9.026  0.648E-01  0.648E-01
   9.036  0.639E-01  0.639E-01
   9.046  0.626E-01  0.626E-01
   9.056  0.611E-01  0.611E-01
   9.066  0.592E-01  0.592E-01
   9.076  0.571E-01  0.571E-01
   9.086  0.546E-01  0.546E-01
   9.096  0.520E-01  0.520E-01
   9.106  0.492E-01  0.492E-01
   9.116  0.462E-01  0.462E-01
   9.126  0.433E-01  0.433E-01
   9.136  0.404E-01  0.404E-01
   9.146  0.376E-01  0.376E-01
   9.156  0.350E-01  0.350E-01
   9.166  0.327E-01  0.327E-01
   9.176  0.307E-01  0.307E-01
   9.186  0.291E-01  0.291E-01
   9.196  0.279E-01  0.279E-01
   9.206  0.271E-01  0.271E-01
   9.216  0.267E-01  0.267E-01
   9.226  0.267E-01  0.267E-01
   9.236  0.271E-01  0.271E-01
   9.246  0.279E-01  0.279E-01
   9.256  0.289E-01  0.289E-01
   9.266  0.303E-01  0.303E-01
   9.276  0.320E-01  0.320E-01
   9.286  0.338E-01  0.338E-01
   9.296  0.359E-01  0.359E-01
   9.306  0.381E-01  0.381E-01
   9.316  0.404E-01  0.404E-01
   9.326  0.429E-01  0.429E-01
   9.336  0.456E-01  0.456E-01
   9.346  0.484E-01  0.484E-01
   9.356  0.513E-01  0.513E-01
   9.366  0.545E-01  0.545E-01
   9.376  0.578E-01  0.578E-01
   9.386  0.614E-01  0.614E-01
   9.396  0.651E-01  0.651E-01
   9.406  0.692E-01  0.692E-01
   9.416  0.734E-01  0.734E-01
   9.426  0.779E-01  0.779E-01
   9.436  0.826E-01  0.826E-01
   9.446  0.874E-01  0.874E-01
   9.456  0.923E-01  0.923E-01
   9.466  0.973E-01  0.973E-01
   9.476  0.102E+00  0.102E+00
   9.486  0.107E+00  0.107E+00
   9.496  0.111E+00  0.111E+00
   9.506  0.115E+00  0.115E+00
   9.516  0.119E+00  0.119E+00
   9.526  0.122E+00  0.122E+00
   9.536  0.124E+00  0.124E+00
   9.546  0.126E+00  0.126E+00
   9.556  0.127E+00  0.127E+00
   9.566  0.127E+00  0.127E+00
   9.576  0.126E+00  0.126E+00
   9.586  0.124E+00  0.124E+00
   9.596  0.122E+00  0.122E+00
   9.606  0.118E+00  0.118E+00
   9.616  0.115E+00  0.115E+00
   9.626  0.110E+00  0.110E+00
   9.636  0.105E+00  0.105E+00
   9.646  0.994E-01  0.994E-01
   9.656  0.937E-01  0.937E-01
   9.666  0.877E-01  0.877E-01
   9.676  0.817E-01  0.817E-01
   9.686  0.757E-01  0.757E-01
   9.696  0.699E-01  0.699E-01
   9.706  0.642E-01  0.642E-01
   9.716  0.587E-01  0.587E-01
   9.726  0.535E-01  0.535E-01
   9.736  0.487E-01  0.487E-01
   9.746  0.442E-01  0.442E-01
   9.756  0.400E-01  0.400E-01
   9.766  0.362E-01  0.362E-01
   9.776  0.328E-01  0.328E-01
   9.786  0.296E-01  0.296E-01
   9.796  0.268E-01  0.268E-01
   9.806  0.243E-01  0.243E-01
   9.816  0.221E-01  0.221E-01
   9.826  0.202E-01  0.202E-01
   9.836  0.185E-01  0.185E-01
   9.846  0.171E-01  0.171E-01
   9.856  0.159E-01  0.159E-01
   9.866  0.150E-01  0.150E-01
   9.876  0.143E-01  0.143E-01
   9.886  0.139E-01  0.139E-01
   9.896  0.136E-01  0.136E-01
   9.906  0.137E-01  0.137E-01
   9.916  0.139E-01  0.139E-01
   9.926  0.144E-01  0.144E-01
   9.936  0.152E-01  0.152E-01
   9.946  0.162E-01  0.162E-01
   9.956  0.174E-01  0.174E-01
   9.966  0.189E-01  0.189E-01
   9.976  0.208E-01  0.208E-01
   9.986  0.229E-01  0.229E-01
   9.996  0.253E-01  0.253E-01
  10.006  0.281E-01  0.281E-01
  10.016  0.313E-01  0.313E-01
  10.026  0.348E-01  0.348E-01
  10.036  0.387E-01  0.387E-01
  10.046  0.429E-01  0.429E-01
  10.056  0.475E-01  0.475E-01
  10.066  0.524E-01  0.524E-01
  10.076  0.575E-01  0.575E-01
  10.086  0.628E-01  0.628E-01
  10.096  0.682E-01  0.682E-01
  10.106  0.735E-01  0.735E-01
  10.116  0.787E-01  0.787E-01
  10.126  0.835E-01  0.835E-01
  10.136  0.880E-01  0.880E-01
  10.146  0.920E-01  0.920E-01
  10.156  0.953E-01  0.953E-01
  10.166  0.978E-01  0.978E-01
  10.176  0.995E-01  0.995E-01
  10.186  0.100E+00  0.100E+00
  10.196  0.100E+00  0.100E+00
  10.206  0.993E-01  0.993E-01
  10.216  0.975E-01  0.975E-01
  10.226  0.949E-01  0.949E-01
  10.236  0.917E-01  0.917E-01
  10.246  0.879E-01  0.879E-01
  10.256  0.838E-01  0.838E-01
  10.266  0.794E-01  0.794E-01
  10.276  0.749E-01  0.749E-01
  10.286  0.705E-01  0.705E-01
  10.296  0.663E-01  0.663E-01
  10.306  0.624E-01  0.624E-01
  10.316  0.590E-01  0.590E-01
  10.326  0.561E-01  0.561E-01
  10.336  0.537E-01  0.537E-01
  10.346  0.519E-01  0.519E-01
  10.356  0.507E-01  0.507E-01
  10.366  0.500E-01  0.500E-01
  10.376  0.498E-01  0.498E-01
  10.386  0.499E-01  0.499E-01
  10.396  0.504E-01  0.504E-01
  10.406  0.510E-01  0.510E-01
  10.416  0.518E-01  0.518E-01
  10.426  0.525E-01  0.525E-01
  10.436  0.532E-01  0.532E-01
  10.446  0.537E-01  0.537E-01
  10.456  0.540E-01  0.540E-01
  10.466  0.540E-01  0.540E-01
  10.476  0.537E-01  0.537E-01
  10.486  0.532E-01  0.532E-01
  10.496  0.524E-01  0.524E-01
  10.506  0.513E-01  0.513E-01
  10.516  0.500E-01  0.500E-01
  10.526  0.486E-01  0.486E-01
  10.536  0.471E-01  0.471E-01
  10.546  0.456E-01  0.456E-01
  10.556  0.440E-01  0.440E-01
  10.566  0.426E-01  0.426E-01
  10.576  0.413E-01  0.413E-01
  10.586  0.401E-01  0.401E-01
  10.596  0.391E-01  0.391E-01
  10.606  0.384E-01  0.384E-01
  10.616  0.379E-01  0.379E-01
  10.626  0.377E-01  0.377E-01
  10.636  0.378E-01  0.378E-01
  10.646  0.383E-01  0.383E-01
  10.656  0.390E-01  0.390E-01
  10.666  0.401E-01  0.401E-01
  10.676  0.414E-01  0.414E-01
  10.686  0.432E-01  0.432E-01
  10.696  0.452E-01  0.452E-01
  10.706  0.475E-01  0.475E-01
  10.716  0.502E-01  0.502E-01
  10.726  0.530E-01  0.530E-01
  10.736  0.561E-01  0.561E-01
  10.746  0.593E-01  0.593E-01
  10.756  0.626E-01  0.626E-01
  10.766  0.659E-01  0.659E-01
  10.776  0.690E-01  0.690E-01
  10.786  0.720E-01  0.720E-01
  10.796  0.747E-01  0.747E-01
  10.806  0.770E-01  0.770E-01
  10.816  0.789E-01  0.789E-01
  10.826  0.802E-01  0.802E-01
  10.836  0.809E-01  0.809E-01
  10.846  0.810E-01  0.810E-01
  10.856  0.804E-01  0.804E-01
  10.866  0.792E-01  0.792E-01
  10.876  0.773E-01  0.773E-01
  10.886  0.749E-01  0.749E-01
  10.896  0.720E-01  0.720E-01
  10.906  0.686E-01  0.686E-01
  10.916  0.649E-01  0.649E-01
  10.926  0.610E-01  0.610E-01
  10.936  0.569E-01  0.569E-01
  10.946  0.529E-01  0.529E-01
  10.956  0.489E-01  0.489E-01
  10.966  0.450E-01  0.450E-01
  10.976  0.414E-01  0.414E-01
  10.986  0.380E-01  0.380E-01
  10.996  0.349E-01  0.349E-01
  11.006  0.322E-01  0.322E-01
  11.016  0.298E-01  0.298E-01
  11.026  0.277E-01  0.277E-01
  11.036  0.259E-01  0.259E-01
  11.046  0.244E-01  0.244E-01
  11.056  0.231E-01  0.231E-01
  11.066  0.219E-01  0.219E-01
  11.076  0.210E-01  0.210E-01
  11.086  0.202E-01  0.202E-01
  11.096  0.195E-01  0.195E-01
  11.106  0.188E-01  0.188E-01
  11.116  0.183E-01  0.183E-01
  11.126  0.178E-01  0.178E-01
  11.136  0.174E-01  0.174E-01
  11.146  0.171E-01  0.171E-01
  11.156  0.169E-01  0.169E-01
  11.166  0.169E-01  0.169E-01
  11.176  0.172E-01  0.172E-01
  11.186  0.176E-01  0.176E-01
  11.196  0.184E-01  0.184E-01
  11.206  0.194E-01  0.194E-01
  11.216  0.209E-01  0.209E-01
  11.226  0.227E-01  0.227E-01
  11.236  0.249E-01  0.249E-01
  11.246  0.275E-01  0.275E-01
  11.256  0.304E-01  0.304E-01
  11.266  0.338E-01  0.338E-01
  11.276  0.374E-01  0.374E-01
  11.286  0.414E-01  0.414E-01
  11.296  0.456E-01  0.456E-01
  11.306  0.500E-01  0.500E-01
  11.316  0.544E-01  0.544E-01
  11.326  0.589E-01  0.589E-01
  11.336  0.633E-01  0.633E-01
  11.346  0.675E-01  0.675E-01
  11.356  0.716E-01  0.716E-01
  11.366  0.754E-01  0.754E-01
  11.376  0.789E-01  0.789E-01
  11.386  0.820E-01  0.820E-01
  11.396  0.848E-01  0.848E-01
  11.406  0.871E-01  0.871E-01
  11.416  0.891E-01  0.891E-01
  11.426  0.906E-01  0.906E-01
  11.436  0.918E-01  0.918E-01
  11.446  0.926E-01  0.926E-01
  11.456  0.931E-01  0.931E-01
  11.466  0.933E-01  0.933E-01
  11.476  0.931E-01  0.931E-01
  11.486  0.927E-01  0.927E-01
  11.496  0.921E-01  0.921E-01
  11.506  0.912E-01  0.912E-01
  11.516  0.900E-01  0.900E-01
  11.526  0.886E-01  0.886E-01
  11.536  0.870E-01  0.870E-01
  11.546  0.850E-01  0.850E-01
  11.556  0.828E-01  0.828E-01
  11.566  0.802E-01  0.802E-01
  11.576  0.774E-01  0.774E-01
  11.586  0.742E-01  0.742E-01
  11.596  0.708E-01  0.708E-01
  11.606  0.671E-01  0.671E-01
  11.616  0.631E-01  0.631E-01
  11.626  0.590E-01  0.590E-01
  11.636  0.547E-01  0.547E-01
  11.646  0.503E-01  0.503E-01
  11.656  0.459E-01  0.459E-01
  11.666  0.415E-01  0.415E-01
  11.676  0.373E-01  0.373E-01
  11.686  0.331E-01  0.331E-01
  11.696  0.292E-01  0.292E-01
  11.706  0.254E-01  0.254E-01
  11.716  0.220E-01  0.220E-01
  11.726  0.188E-01  0.188E-01
  11.736  0.159E-01  0.159E-01
  11.746  0.134E-01  0.134E-01
  11.756  0.112E-01  0.112E-01
  11.766  0.923E-02  0.923E-02
  11.776  0.759E-02  0.759E-02
  11.786  0.622E-02  0.622E-02
  11.796  0.511E-02  0.511E-02
  11.806  0.425E-02  0.425E-02
  11.816  0.361E-02  0.361E-02
  11.826  0.317E-02  0.317E-02
  11.836  0.294E-02  0.294E-02
  11.846  0.290E-02  0.290E-02
  11.856  0.305E-02  0.305E-02
  11.866  0.338E-02  0.338E-02
  11.876  0.391E-02  0.391E-02
  11.886  0.463E-02  0.463E-02
  11.896  0.556E-02  0.556E-02
  11.906  0.670E-02  0.670E-02
  11.916  0.807E-02  0.807E-02
  11.926  0.966E-02  0.966E-02
  11.936  0.115E-01  0.115E-01
  11.946  0.136E-01  0.136E-01
  11.956  0.158E-01  0.158E-01
  11.966  0.184E-01  0.184E-01
  11.976  0.211E-01  0.211E-01
  11.986  0.239E-01  0.239E-01
  11.996  0.269E-01  0.269E-01
  12.006  0.300E-01  0.300E-01
  12.016  0.332E-01  0.332E-01
  12.026  0.363E-01  0.363E-01
  12.036  0.394E-01  0.394E-01
  12.046  0.423E-01  0.423E-01
  12.056  0.452E-01  0.452E-01
  12.066  0.478E-01  0.478E-01
  12.076  0.502E-01  0.502E-01
  12.086  0.524E-01  0.524E-01
  12.096  0.543E-01  0.543E-01
  12.106  0.560E-01  0.560E-01
  12.116  0.576E-01  0.576E-01
  12.126  0.589E-01  0.589E-01
  12.136  0.602E-01  0.602E-01
  12.146  0.614E-01  0.614E-01
  12.156  0.626E-01  0.626E-01
  12.166  0.639E-01  0.639E-01
  12.176  0.653E-01  0.653E-01
  12.186  0.668E-01  0.668E-01
  12.196  0.685E-01  0.685E-01
  12.206  0.703E-01  0.703E-01
  12.216  0.722E-01  0.722E-01
  12.226  0.743E-01  0.743E-01
  12.236  0.764E-01  0.764E-01
  12.246  0.784E-01  0.784E-01
  12.256  0.803E-01  0.803E-01
  12.266  0.819E-01  0.819E-01
  12.276  0.833E-01  0.833E-01
  12.286  0.841E-01  0.841E-01
  12.296  0.845E-01  0.845E-01
  12.306  0.843E-01  0.843E-01
  12.316  0.835E-01  0.835E-01
  12.326  0.820E-01  0.820E-01
  12.336  0.798E-01  0.798E-01
  12.346  0.771E-01  0.771E-01
  12.356  0.738E-01  0.738E-01
  12.366  0.701E-01  0.701E-01
  12.376  0.659E-01  0.659E-01
  12.386  0.615E-01  0.615E-01
  12.396  0.569E-01  0.569E-01
  12.406  0.523E-01  0.523E-01
  12.416  0.478E-01  0.478E-01
  12.426  0.434E-01  0.434E-01
  12.436  0.392E-01  0.392E-01
  12.446  0.354E-01  0.354E-01
  12.456  0.319E-01  0.319E-01
  12.466  0.289E-01  0.289E-01
  12.476  0.263E-01  0.263E-01
  12.486  0.241E-01  0.241E-01
  12.496  0.223E-01  0.223E-01
  12.506  0.209E-01  0.209E-01
  12.516  0.199E-01  0.199E-01
  12.526  0.191E-01  0.191E-01
  12.536  0.187E-01  0.187E-01
  12.546  0.184E-01  0.184E-01
  12.556  0.184E-01  0.184E-01
  12.566  0.185E-01  0.185E-01
  12.576  0.187E-01  0.187E-01
  12.586  0.189E-01  0.189E-01
  12.596  0.193E-01  0.193E-01
  12.606  0.197E-01  0.197E-01
  12.616  0.201E-01  0.201E-01
  12.626  0.207E-01  0.207E-01
  12.636  0.212E-01  0.212E-01
  12.646  0.219E-01  0.219E-01
  12.656  0.226E-01  0.226E-01
  12.666  0.234E-01  0.234E-01
  12.676  0.243E-01  0.243E-01
  12.686  0.252E-01  0.252E-01
  12.696  0.262E-01  0.262E-01
  12.706  0.273E-01  0.273E-01
  12.716  0.283E-01  0.283E-01
  12.726  0.293E-01  0.293E-01
  12.736  0.303E-01  0.303E-01
  12.746  0.312E-01  0.312E-01
  12.756  0.319E-01  0.319E-01
  12.766  0.325E-01  0.325E-01
  12.776  0.329E-01  0.329E-01
  12.786  0.331E-01  0.331E-01
  12.796  0.330E-01  0.330E-01
  12.806  0.328E-01  0.328E-01
  12.816  0.323E-01  0.323E-01
  12.826  0.317E-01  0.317E-01
  12.836  0.310E-01  0.310E-01
  12.846  0.301E-01  0.301E-01
  12.856  0.292E-01  0.292E-01
  12.866  0.283E-01  0.283E-01
  12.876  0.275E-01  0.275E-01
  12.886  0.268E-01  0.268E-01
  12.896  0.263E-01  0.263E-01
  12.906  0.260E-01  0.260E-01
  12.916  0.260E-01  0.260E-01
  12.926  0.263E-01  0.263E-01
  12.936  0.269E-01  0.269E-01
  12.946  0.278E-01  0.278E-01
  12.956  0.291E-01  0.291E-01
  12.966  0.306E-01  0.306E-01
  12.976  0.324E-01  0.324E-01
  12.986  0.343E-01  0.343E-01
  12.996  0.365E-01  0.365E-01
  13.006  0.386E-01  0.386E-01
  13.016  0.408E-01  0.408E-01
  13.026  0.430E-01  0.430E-01
  13.036  0.450E-01  0.450E-01
  13.046  0.469E-01  0.469E-01
  13.056  0.486E-01  0.486E-01
  13.066  0.500E-01  0.500E-01
  13.076  0.512E-01  0.512E-01
  13.086  0.521E-01  0.521E-01
  13.096  0.528E-01  0.528E-01
  13.106  0.532E-01  0.532E-01
  13.116  0.535E-01  0.535E-01
  13.126  0.535E-01  0.535E-01
  13.136  0.534E-01  0.534E-01
  13.146  0.532E-01  0.532E-01
  13.156  0.529E-01  0.529E-01
  13.166  0.526E-01  0.526E-01
  13.176  0.522E-01  0.522E-01
  13.186  0.518E-01  0.518E-01
  13.196  0.514E-01  0.514E-01
  13.206  0.510E-01  0.510E-01
  13.216  0.506E-01  0.506E-01
  13.226  0.501E-01  0.501E-01
  13.236  0.496E-01  0.496E-01
  13.246  0.490E-01  0.490E-01
  13.256  0.483E-01  0.483E-01
  13.266  0.474E-01  0.474E-01
  13.276  0.465E-01  0.465E-01
  13.286  0.454E-01  0.454E-01
  13.296  0.443E-01  0.443E-01
  13.306  0.431E-01  0.431E-01
  13.316  0.418E-01  0.418E-01
  13.326  0.405E-01  0.405E-01
  13.336  0.392E-01  0.392E-01
  13.346  0.380E-01  0.380E-01
  13.356  0.369E-01  0.369E-01
  13.366  0.359E-01  0.359E-01
  13.376  0.350E-01  0.350E-01
  13.386  0.343E-01  0.343E-01
  13.396  0.338E-01  0.338E-01
  13.406  0.334E-01  0.334E-01
  13.416  0.332E-01  0.332E-01
  13.426  0.330E-01  0.330E-01
  13.436  0.330E-01  0.330E-01
  13.446  0.330E-01  0.330E-01
  13.456  0.331E-01  0.331E-01
  13.466  0.331E-01  0.331E-01
  13.476  0.330E-01  0.330E-01
  13.486  0.329E-01  0.329E-01
  13.496  0.327E-01  0.327E-01
  13.506  0.324E-01  0.324E-01
  13.516  0.320E-01  0.320E-01
  13.526  0.314E-01  0.314E-01
  13.536  0.308E-01  0.308E-01
  13.546  0.301E-01  0.301E-01
  13.556  0.294E-01  0.294E-01
  13.566  0.286E-01  0.286E-01
  13.576  0.279E-01  0.279E-01
  13.586  0.273E-01  0.273E-01
  13.596  0.267E-01  0.267E-01
  13.606  0.262E-01  0.262E-01
  13.616  0.259E-01  0.259E-01
  13.626  0.257E-01  0.257E-01
  13.636  0.257E-01  0.257E-01
  13.646  0.258E-01  0.258E-01
  13.656  0.261E-01  0.261E-01
  13.666  0.265E-01  0.265E-01
  13.676  0.271E-01  0.271E-01
  13.686  0.278E-01  0.278E-01
  13.696  0.286E-01  0.286E-01
  13.706  0.295E-01  0.295E-01
  13.716  0.305E-01  0.305E-01
  13.726  0.315E-01  0.315E-01
  13.736  0.325E-01  0.325E-01
  13.746  0.335E-01  0.335E-01
  13.756  0.343E-01  0.343E-01
  13.766  0.351E-01  0.351E-01
  13.776  0.358E-01  0.358E-01
  13.786  0.362E-01  0.362E-01
  13.796  0.365E-01  0.365E-01
  13.806  0.365E-01  0.365E-01
  13.816  0.363E-01  0.363E-01
  13.826  0.358E-01  0.358E-01
  13.836  0.350E-01  0.350E-01
  13.846  0.340E-01  0.340E-01
  13.856  0.327E-01  0.327E-01
  13.866  0.313E-01  0.313E-01
  13.876  0.296E-01  0.296E-01
  13.886  0.278E-01  0.278E-01
  13.896  0.259E-01  0.259E-01
  13.906  0.239E-01  0.239E-01
  13.916  0.219E-01  0.219E-01
  13.926  0.199E-01  0.199E-01
  13.936  0.181E-01  0.181E-01
  13.946  0.163E-01  0.163E-01
  13.956  0.148E-01  0.148E-01
  13.966  0.134E-01  0.134E-01
  13.976  0.123E-01  0.123E-01
  13.986  0.115E-01  0.115E-01
  13.996  0.110E-01  0.110E-01
  14.006  0.108E-01  0.108E-01
  14.016  0.110E-01  0.110E-01
  14.026  0.116E-01  0.116E-01
  14.036  0.125E-01  0.125E-01
  14.046  0.139E-01  0.139E-01
  14.056  0.157E-01  0.157E-01
  14.066  0.178E-01  0.178E-01
  14.076  0.204E-01  0.204E-01
  14.086  0.233E-01  0.233E-01
  14.096  0.266E-01  0.266E-01
  14.106  0.302E-01  0.302E-01
  14.116  0.340E-01  0.340E-01
  14.126  0.380E-01  0.380E-01
  14.136  0.421E-01  0.421E-01
  14.146  0.463E-01  0.463E-01
  14.156  0.503E-01  0.503E-01
  14.166  0.542E-01  0.542E-01
  14.176  0.579E-01  0.579E-01
  14.186  0.611E-01  0.611E-01
  14.196  0.640E-01  0.640E-01
  14.206  0.662E-01  0.662E-01
  14.216  0.679E-01  0.679E-01
  14.226  0.690E-01  0.690E-01
  14.236  0.693E-01  0.693E-01
  14.246  0.690E-01  0.690E-01
  14.256  0.680E-01  0.680E-01
  14.266  0.664E-01  0.664E-01
  14.276  0.641E-01  0.641E-01
  14.286  0.614E-01  0.614E-01
  14.296  0.582E-01  0.582E-01
  14.306  0.547E-01  0.547E-01
  14.316  0.509E-01  0.509E-01
  14.326  0.469E-01  0.469E-01
  14.336  0.429E-01  0.429E-01
  14.346  0.390E-01  0.390E-01
  14.356  0.352E-01  0.352E-01
  14.366  0.316E-01  0.316E-01
  14.376  0.282E-01  0.282E-01
  14.386  0.252E-01  0.252E-01
  14.396  0.226E-01  0.226E-01
  14.406  0.204E-01  0.204E-01
  14.416  0.186E-01  0.186E-01
  14.426  0.172E-01  0.172E-01
  14.436  0.163E-01  0.163E-01
  14.446  0.158E-01  0.158E-01
  14.456  0.157E-01  0.157E-01
  14.466  0.160E-01  0.160E-01
  14.476  0.166E-01  0.166E-01
  14.486  0.175E-01  0.175E-01
  14.496  0.187E-01  0.187E-01
  14.506  0.200E-01  0.200E-01
  14.516  0.216E-01  0.216E-01
  14.526  0.232E-01  0.232E-01
  14.536  0.248E-01  0.248E-01
  14.546  0.265E-01  0.265E-01
  14.556  0.280E-01  0.280E-01
  14.566  0.294E-01  0.294E-01
  14.576  0.306E-01  0.306E-01
  14.586  0.316E-01  0.316E-01
  14.596  0.324E-01  0.324E-01
  14.606  0.329E-01  0.329E-01
  14.616  0.331E-01  0.331E-01
  14.626  0.331E-01  0.331E-01
  14.636  0.328E-01  0.328E-01
  14.646  0.323E-01  0.323E-01
  14.656  0.316E-01  0.316E-01
  14.666  0.308E-01  0.308E-01
  14.676  0.298E-01  0.298E-01
  14.686  0.289E-01  0.289E-01
  14.696  0.280E-01  0.280E-01
  14.706  0.271E-01  0.271E-01
  14.716  0.263E-01  0.263E-01
  14.726  0.257E-01  0.257E-01
  14.736  0.253E-01  0.253E-01
  14.746  0.251E-01  0.251E-01
  14.756  0.252E-01  0.252E-01
  14.766  0.254E-01  0.254E-01
  14.776  0.259E-01  0.259E-01
  14.786  0.266E-01  0.266E-01
  14.796  0.274E-01  0.274E-01
  14.806  0.284E-01  0.284E-01
  14.816  0.296E-01  0.296E-01
  14.826  0.308E-01  0.308E-01
  14.836  0.320E-01  0.320E-01
  14.846  0.331E-01  0.331E-01
  14.856  0.343E-01  0.343E-01
  14.866  0.352E-01  0.352E-01
  14.876  0.361E-01  0.361E-01
  14.886  0.367E-01  0.367E-01
  14.896  0.371E-01  0.371E-01
  14.906  0.373E-01  0.373E-01
  14.916  0.372E-01  0.372E-01
  14.926  0.369E-01  0.369E-01
  14.936  0.363E-01  0.363E-01
  14.946  0.354E-01  0.354E-01
  14.956  0.344E-01  0.344E-01
  14.966  0.332E-01  0.332E-01
  14.976  0.319E-01  0.319E-01
  14.986  0.305E-01  0.305E-01
  14.996  0.291E-01  0.291E-01
  15.006  0.276E-01  0.276E-01
  15.016  0.263E-01  0.263E-01
  15.026  0.250E-01  0.250E-01
  15.036  0.239E-01  0.239E-01
  15.046  0.230E-01  0.230E-01
  15.056  0.222E-01  0.222E-01
  15.066  0.218E-01  0.218E-01
  15.076  0.215E-01  0.215E-01
  15.086  0.215E-01  0.215E-01
  15.096  0.218E-01  0.218E-01
  15.106  0.223E-01  0.223E-01
  15.116  0.231E-01  0.231E-01
  15.126  0.241E-01  0.241E-01
  15.136  0.253E-01  0.253E-01
  15.146  0.267E-01  0.267E-01
  15.156  0.282E-01  0.282E-01
  15.166  0.299E-01  0.299E-01
  15.176  0.316E-01  0.316E-01
  15.186  0.334E-01  0.334E-01
  15.196  0.353E-01  0.353E-01
  15.206  0.371E-01  0.371E-01
  15.216  0.390E-01  0.390E-01
  15.226  0.408E-01  0.408E-01
  15.236  0.425E-01  0.425E-01
  15.246  0.442E-01  0.442E-01
  15.256  0.458E-01  0.458E-01
  15.266  0.472E-01  0.472E-01
  15.276  0.486E-01  0.486E-01
  15.286  0.498E-01  0.498E-01
  15.296  0.509E-01  0.509E-01
  15.306  0.518E-01  0.518E-01
  15.316  0.526E-01  0.526E-01
  15.326  0.532E-01  0.532E-01
  15.336  0.537E-01  0.537E-01
  15.346  0.540E-01  0.540E-01
  15.356  0.541E-01  0.541E-01
  15.366  0.541E-01  0.541E-01
  15.376  0.538E-01  0.538E-01
  15.386  0.533E-01  0.533E-01
  15.396  0.526E-01  0.526E-01
  15.406  0.517E-01  0.517E-01
  15.416  0.506E-01  0.506E-01
  15.426  0.493E-01  0.493E-01
  15.436  0.478E-01  0.478E-01
  15.446  0.462E-01  0.462E-01
  15.456  0.444E-01  0.444E-01
  15.466  0.426E-01  0.426E-01
  15.476  0.408E-01  0.408E-01
  15.486  0.389E-01  0.389E-01
  15.496  0.371E-01  0.371E-01
  15.506  0.354E-01  0.354E-01
  15.516  0.338E-01  0.338E-01
  15.526  0.323E-01  0.323E-01
  15.536  0.311E-01  0.311E-01
  15.546  0.300E-01  0.300E-01
  15.556  0.292E-01  0.292E-01
  15.566  0.286E-01  0.286E-01
  15.576  0.282E-01  0.282E-01
  15.586  0.280E-01  0.280E-01
  15.596  0.280E-01  0.280E-01
  15.606  0.281E-01  0.281E-01
  15.616  0.283E-01  0.283E-01
  15.626  0.286E-01  0.286E-01
  15.636  0.288E-01  0.288E-01
  15.646  0.291E-01  0.291E-01
  15.656  0.293E-01  0.293E-01
  15.666  0.294E-01  0.294E-01
  15.676  0.293E-01  0.293E-01
  15.686  0.291E-01  0.291E-01
  15.696  0.288E-01  0.288E-01
  15.706  0.283E-01  0.283E-01
  15.716  0.276E-01  0.276E-01
  15.726  0.268E-01  0.268E-01
  15.736  0.259E-01  0.259E-01
  15.746  0.250E-01  0.250E-01
  15.756  0.240E-01  0.240E-01
  15.766  0.231E-01  0.231E-01
  15.776  0.223E-01  0.223E-01
  15.786  0.216E-01  0.216E-01
  15.796  0.211E-01  0.211E-01
  15.806  0.208E-01  0.208E-01
  15.816  0.208E-01  0.208E-01
  15.826  0.211E-01  0.211E-01
  15.836  0.218E-01  0.218E-01
  15.846  0.228E-01  0.228E-01
  15.856  0.243E-01  0.243E-01
  15.866  0.261E-01  0.261E-01
  15.876  0.283E-01  0.283E-01
  15.886  0.309E-01  0.309E-01
  15.896  0.339E-01  0.339E-01
  15.906  0.372E-01  0.372E-01
  15.916  0.408E-01  0.408E-01
  15.926  0.446E-01  0.446E-01
  15.936  0.485E-01  0.485E-01
  15.946  0.527E-01  0.527E-01
  15.956  0.568E-01  0.568E-01
  15.966  0.610E-01  0.610E-01
  15.976  0.651E-01  0.651E-01
  15.986  0.691E-01  0.691E-01
  15.996  0.729E-01  0.729E-01
  16.006  0.764E-01  0.764E-01
  16.016  0.797E-01  0.797E-01
  16.026  0.827E-01  0.827E-01
  16.036  0.853E-01  0.853E-01
  16.046  0.876E-01  0.876E-01
  16.056  0.896E-01  0.896E-01
  16.066  0.912E-01  0.912E-01
  16.076  0.925E-01  0.925E-01
  16.086  0.935E-01  0.935E-01
  16.096  0.943E-01  0.943E-01
  16.106  0.947E-01  0.947E-01
  16.116  0.950E-01  0.950E-01
  16.126  0.950E-01  0.950E-01
  16.136  0.949E-01  0.949E-01
  16.146  0.945E-01  0.945E-01
  16.156  0.940E-01  0.940E-01
  16.166  0.934E-01  0.934E-01
  16.176  0.925E-01  0.925E-01
  16.186  0.915E-01  0.915E-01
  16.196  0.903E-01  0.903E-01
  16.206  0.889E-01  0.889E-01
  16.216  0.874E-01  0.874E-01
  16.226  0.856E-01  0.856E-01
  16.236  0.837E-01  0.837E-01
  16.246  0.817E-01  0.817E-01
  16.256  0.795E-01  0.795E-01
  16.266  0.771E-01  0.771E-01
  16.276  0.747E-01  0.747E-01
  16.286  0.723E-01  0.723E-01
  16.296  0.698E-01  0.698E-01
  16.306  0.674E-01  0.674E-01
  16.316  0.650E-01  0.650E-01
  16.326  0.627E-01  0.627E-01
  16.336  0.605E-01  0.605E-01
  16.346  0.585E-01  0.585E-01
  16.356  0.565E-01  0.565E-01
  16.366  0.547E-01  0.547E-01
  16.376  0.531E-01  0.531E-01
  16.386  0.516E-01  0.516E-01
  16.396  0.501E-01  0.501E-01
  16.406  0.488E-01  0.488E-01
  16.416  0.476E-01  0.476E-01
  16.426  0.464E-01  0.464E-01
  16.436  0.453E-01  0.453E-01
  16.446  0.442E-01  0.442E-01
  16.456  0.432E-01  0.432E-01
  16.466  0.421E-01  0.421E-01
  16.476  0.412E-01  0.412E-01
  16.486  0.402E-01  0.402E-01
  16.496  0.392E-01  0.392E-01
  16.506  0.383E-01  0.383E-01
  16.516  0.375E-01  0.375E-01
  16.526  0.367E-01  0.367E-01
  16.536  0.360E-01  0.360E-01
  16.546  0.354E-01  0.354E-01
  16.556  0.348E-01  0.348E-01
  16.566  0.343E-01  0.343E-01
  16.576  0.339E-01  0.339E-01
  16.586  0.336E-01  0.336E-01
  16.596  0.334E-01  0.334E-01
  16.606  0.332E-01  0.332E-01
  16.616  0.331E-01  0.331E-01
  16.626  0.330E-01  0.330E-01
  16.636  0.329E-01  0.329E-01
  16.646  0.328E-01  0.328E-01
  16.656  0.327E-01  0.327E-01
  16.666  0.325E-01  0.325E-01
  16.676  0.324E-01  0.324E-01
  16.686  0.321E-01  0.321E-01
  16.696  0.319E-01  0.319E-01
  16.706  0.316E-01  0.316E-01
  16.716  0.312E-01  0.312E-01
  16.726  0.309E-01  0.309E-01
  16.736  0.306E-01  0.306E-01
  16.746  0.303E-01  0.303E-01
  16.756  0.301E-01  0.301E-01
  16.766  0.300E-01  0.300E-01
  16.776  0.300E-01  0.300E-01
  16.786  0.302E-01  0.302E-01
  16.796  0.305E-01  0.305E-01
  16.806  0.310E-01  0.310E-01
  16.816  0.318E-01  0.318E-01
  16.826  0.329E-01  0.329E-01
  16.836  0.342E-01  0.342E-01
  16.846  0.358E-01  0.358E-01
  16.856  0.378E-01  0.378E-01
  16.866  0.401E-01  0.401E-01
  16.876  0.428E-01  0.428E-01
  16.886  0.459E-01  0.459E-01
  16.896  0.493E-01  0.493E-01
  16.906  0.531E-01  0.531E-01
  16.916  0.573E-01  0.573E-01
  16.926  0.617E-01  0.617E-01
  16.936  0.664E-01  0.664E-01
  16.946  0.713E-01  0.713E-01
  16.956  0.763E-01  0.763E-01
  16.966  0.813E-01  0.813E-01
  16.976  0.863E-01  0.863E-01
  16.986  0.911E-01  0.911E-01
  16.996  0.957E-01  0.957E-01
  17.006  0.100E+00  0.100E+00
  17.016  0.104E+00  0.104E+00
  17.026  0.107E+00  0.107E+00
  17.036  0.110E+00  0.110E+00
  17.046  0.112E+00  0.112E+00
  17.056  0.114E+00  0.114E+00
  17.066  0.115E+00  0.115E+00
  17.076  0.116E+00  0.116E+00
  17.086  0.116E+00  0.116E+00
  17.096  0.116E+00  0.116E+00
  17.106  0.115E+00  0.115E+00
  17.116  0.114E+00  0.114E+00
  17.126  0.113E+00  0.113E+00
  17.136  0.112E+00  0.112E+00
  17.146  0.111E+00  0.111E+00
  17.156  0.109E+00  0.109E+00
  17.166  0.108E+00  0.108E+00
  17.176  0.106E+00  0.106E+00
  17.186  0.105E+00  0.105E+00
  17.196  0.104E+00  0.104E+00
  17.206  0.103E+00  0.103E+00
  17.216  0.101E+00  0.101E+00
  17.226  0.100E+00  0.100E+00
  17.236  0.989E-01  0.989E-01
  17.246  0.977E-01  0.977E-01
  17.256  0.965E-01  0.965E-01
  17.266  0.951E-01  0.951E-01
  17.276  0.937E-01  0.937E-01
  17.286  0.923E-01  0.923E-01
  17.296  0.907E-01  0.907E-01
  17.306  0.892E-01  0.892E-01
  17.316  0.876E-01  0.876E-01
  17.326  0.861E-01  0.861E-01
  17.336  0.847E-01  0.847E-01
  17.346  0.833E-01  0.833E-01
  17.356  0.821E-01  0.821E-01
  17.366  0.811E-01  0.811E-01
  17.376  0.802E-01  0.802E-01
  17.386  0.796E-01  0.796E-01
  17.396  0.791E-01  0.791E-01
  17.406  0.788E-01  0.788E-01
  17.416  0.787E-01  0.787E-01
  17.426  0.788E-01  0.788E-01
  17.436  0.789E-01  0.789E-01
  17.446  0.792E-01  0.792E-01
  17.456  0.794E-01  0.794E-01
  17.466  0.796E-01  0.796E-01
  17.476  0.797E-01  0.797E-01
  17.486  0.796E-01  0.796E-01
  17.496  0.794E-01  0.794E-01
  17.506  0.790E-01  0.790E-01
  17.516  0.784E-01  0.784E-01
  17.526  0.776E-01  0.776E-01
  17.536  0.765E-01  0.765E-01
  17.546  0.752E-01  0.752E-01
  17.556  0.737E-01  0.737E-01
  17.566  0.720E-01  0.720E-01
  17.576  0.702E-01  0.702E-01
  17.586  0.682E-01  0.682E-01
  17.596  0.662E-01  0.662E-01
  17.606  0.642E-01  0.642E-01
  17.616  0.622E-01  0.622E-01
  17.626  0.603E-01  0.603E-01
  17.636  0.585E-01  0.585E-01
  17.646  0.568E-01  0.568E-01
  17.656  0.553E-01  0.553E-01
  17.666  0.541E-01  0.541E-01
  17.676  0.531E-01  0.531E-01
  17.686  0.524E-01  0.524E-01
  17.696  0.520E-01  0.520E-01
  17.706  0.519E-01  0.519E-01
  17.716  0.520E-01  0.520E-01
  17.726  0.524E-01  0.524E-01
  17.736  0.531E-01  0.531E-01
  17.746  0.541E-01  0.541E-01
  17.756  0.552E-01  0.552E-01
  17.766  0.566E-01  0.566E-01
  17.776  0.582E-01  0.582E-01
  17.786  0.598E-01  0.598E-01
  17.796  0.616E-01  0.616E-01
  17.806  0.634E-01  0.634E-01
  17.816  0.653E-01  0.653E-01
  17.826  0.671E-01  0.671E-01
  17.836  0.688E-01  0.688E-01
  17.846  0.704E-01  0.704E-01
  17.856  0.719E-01  0.719E-01
  17.866  0.732E-01  0.732E-01
  17.876  0.744E-01  0.744E-01
  17.886  0.753E-01  0.753E-01
  17.896  0.760E-01  0.760E-01
  17.906  0.765E-01  0.765E-01
  17.916  0.768E-01  0.768E-01
  17.926  0.770E-01  0.770E-01
  17.936  0.771E-01  0.771E-01
  17.946  0.770E-01  0.770E-01
  17.956  0.770E-01  0.770E-01
  17.966  0.769E-01  0.769E-01
  17.976  0.769E-01  0.769E-01
  17.986  0.770E-01  0.770E-01
  17.996  0.771E-01  0.771E-01
  18.006  0.772E-01  0.772E-01
  18.016  0.775E-01  0.775E-01
  18.026  0.778E-01  0.778E-01
  18.036  0.780E-01  0.780E-01
  18.046  0.783E-01  0.783E-01
  18.056  0.785E-01  0.785E-01
  18.066  0.785E-01  0.785E-01
  18.076  0.784E-01  0.784E-01
  18.086  0.781E-01  0.781E-01
  18.096  0.776E-01  0.776E-01
  18.106  0.768E-01  0.768E-01
  18.116  0.759E-01  0.759E-01
  18.126  0.747E-01  0.747E-01
  18.136  0.734E-01  0.734E-01
  18.146  0.719E-01  0.719E-01
  18.156  0.703E-01  0.703E-01
  18.166  0.686E-01  0.686E-01
  18.176  0.670E-01  0.670E-01
  18.186  0.654E-01  0.654E-01
  18.196  0.639E-01  0.639E-01
  18.206  0.626E-01  0.626E-01
  18.216  0.613E-01  0.613E-01
  18.226  0.602E-01  0.602E-01
  18.236  0.593E-01  0.593E-01
  18.246  0.585E-01  0.585E-01
  18.256  0.578E-01  0.578E-01
  18.266  0.572E-01  0.572E-01
  18.276  0.566E-01  0.566E-01
  18.286  0.562E-01  0.562E-01
  18.296  0.557E-01  0.557E-01
  18.306  0.552E-01  0.552E-01
  18.316  0.547E-01  0.547E-01
  18.326  0.542E-01  0.542E-01
  18.336  0.538E-01  0.538E-01
  18.346  0.533E-01  0.533E-01
  18.356  0.528E-01  0.528E-01
  18.366  0.524E-01  0.524E-01
  18.376  0.521E-01  0.521E-01
  18.386  0.518E-01  0.518E-01
  18.396  0.517E-01  0.517E-01
  18.406  0.516E-01  0.516E-01
  18.416  0.517E-01  0.517E-01
  18.426  0.518E-01  0.518E-01
  18.436  0.520E-01  0.520E-01
  18.446  0.524E-01  0.524E-01
  18.456  0.527E-01  0.527E-01
  18.466  0.532E-01  0.532E-01
  18.476  0.536E-01  0.536E-01
  18.486  0.541E-01  0.541E-01
  18.496  0.546E-01  0.546E-01
  18.506  0.550E-01  0.550E-01
  18.516  0.555E-01  0.555E-01
  18.526  0.559E-01  0.559E-01
  18.536  0.564E-01  0.564E-01
  18.546  0.569E-01  0.569E-01
  18.556  0.575E-01  0.575E-01
  18.566  0.581E-01  0.581E-01
  18.576  0.588E-01  0.588E-01
  18.586  0.596E-01  0.596E-01
  18.596  0.605E-01  0.605E-01
  18.606  0.615E-01  0.615E-01
  18.616  0.626E-01  0.626E-01
  18.626  0.638E-01  0.638E-01
  18.636  0.650E-01  0.650E-01
  18.646  0.662E-01  0.662E-01
  18.656  0.674E-01  0.674E-01
  18.666  0.685E-01  0.685E-01
  18.676  0.695E-01  0.695E-01
  18.686  0.703E-01  0.703E-01
  18.696  0.709E-01  0.709E-01
  18.706  0.713E-01  0.713E-01
  18.716  0.715E-01  0.715E-01
  18.726  0.714E-01  0.714E-01
  18.736  0.711E-01  0.711E-01
  18.746  0.706E-01  0.706E-01
  18.756  0.700E-01  0.700E-01
  18.766  0.692E-01  0.692E-01
  18.776  0.683E-01  0.683E-01
  18.786  0.675E-01  0.675E-01
  18.796  0.666E-01  0.666E-01
  18.806  0.658E-01  0.658E-01
  18.816  0.651E-01  0.651E-01
  18.826  0.645E-01  0.645E-01
  18.836  0.641E-01  0.641E-01
  18.846  0.638E-01  0.638E-01
  18.856  0.636E-01  0.636E-01
  18.866  0.635E-01  0.635E-01
  18.876  0.635E-01  0.635E-01
  18.886  0.635E-01  0.635E-01
  18.896  0.635E-01  0.635E-01
  18.906  0.633E-01  0.633E-01
  18.916  0.631E-01  0.631E-01
  18.926  0.627E-01  0.627E-01
  18.936  0.620E-01  0.620E-01
  18.946  0.612E-01  0.612E-01
  18.956  0.601E-01  0.601E-01
  18.966  0.587E-01  0.587E-01
  18.976  0.572E-01  0.572E-01
  18.986  0.554E-01  0.554E-01
  18.996  0.535E-01  0.535E-01
  19.006  0.516E-01  0.516E-01
  19.016  0.496E-01  0.496E-01
  19.026  0.478E-01  0.478E-01
  19.036  0.460E-01  0.460E-01
  19.046  0.445E-01  0.445E-01
  19.056  0.433E-01  0.433E-01
  19.066  0.423E-01  0.423E-01
  19.076  0.417E-01  0.417E-01
  19.086  0.415E-01  0.415E-01
  19.096  0.417E-01  0.417E-01
  19.106  0.422E-01  0.422E-01
  19.116  0.431E-01  0.431E-01
  19.126  0.442E-01  0.442E-01
  19.136  0.455E-01  0.455E-01
  19.146  0.469E-01  0.469E-01
  19.156  0.484E-01  0.484E-01
  19.166  0.498E-01  0.498E-01
  19.176  0.511E-01  0.511E-01
  19.186  0.522E-01  0.522E-01
  19.196  0.531E-01  0.531E-01
  19.206  0.537E-01  0.537E-01
  19.216  0.539E-01  0.539E-01
  19.226  0.538E-01  0.538E-01
  19.236  0.535E-01  0.535E-01
  19.246  0.528E-01  0.528E-01
  19.256  0.519E-01  0.519E-01
  19.266  0.508E-01  0.508E-01
  19.276  0.496E-01  0.496E-01
  19.286  0.483E-01  0.483E-01
  19.296  0.471E-01  0.471E-01
  19.306  0.461E-01  0.461E-01
  19.316  0.452E-01  0.452E-01
  19.326  0.446E-01  0.446E-01
  19.336  0.443E-01  0.443E-01
  19.346  0.443E-01  0.443E-01
  19.356  0.447E-01  0.447E-01
  19.366  0.454E-01  0.454E-01
  19.376  0.464E-01  0.464E-01
  19.386  0.476E-01  0.476E-01
  19.396  0.491E-01  0.491E-01
  19.406  0.506E-01  0.506E-01
  19.416  0.523E-01  0.523E-01
  19.426  0.540E-01  0.540E-01
  19.436  0.556E-01  0.556E-01
  19.446  0.570E-01  0.570E-01
  19.456  0.583E-01  0.583E-01
  19.466  0.594E-01  0.594E-01
  19.476  0.602E-01  0.602E-01
  19.486  0.607E-01  0.607E-01
  19.496  0.610E-01  0.610E-01
  19.506  0.610E-01  0.610E-01
  19.516  0.609E-01  0.609E-01
  19.526  0.606E-01  0.606E-01
  19.536  0.602E-01  0.602E-01
  19.546  0.597E-01  0.597E-01
  19.556  0.593E-01  0.593E-01
  19.566  0.589E-01  0.589E-01
  19.576  0.586E-01  0.586E-01
  19.586  0.584E-01  0.584E-01
  19.596  0.584E-01  0.584E-01
  19.606  0.586E-01  0.586E-01
  19.616  0.589E-01  0.589E-01
  19.626  0.593E-01  0.593E-01
  19.636  0.599E-01  0.599E-01
  19.646  0.604E-01  0.604E-01
  19.656  0.609E-01  0.609E-01
  19.666  0.613E-01  0.613E-01
  19.676  0.616E-01  0.616E-01
  19.686  0.617E-01  0.617E-01
  19.696  0.615E-01  0.615E-01
  19.706  0.610E-01  0.610E-01
  19.716  0.601E-01  0.601E-01
  19.726  0.590E-01  0.590E-01
  19.736  0.575E-01  0.575E-01
  19.746  0.557E-01  0.557E-01
  19.756  0.536E-01  0.536E-01
  19.766  0.514E-01  0.514E-01
  19.776  0.490E-01  0.490E-01
  19.786  0.465E-01  0.465E-01
  19.796  0.440E-01  0.440E-01
  19.806  0.416E-01  0.416E-01
  19.816  0.394E-01  0.394E-01
  19.826  0.374E-01  0.374E-01
  19.836  0.357E-01  0.357E-01
  19.846  0.344E-01  0.344E-01
  19.856  0.334E-01  0.334E-01
  19.866  0.328E-01  0.328E-01
  19.876  0.325E-01  0.325E-01
  19.886  0.326E-01  0.326E-01
  19.896  0.331E-01  0.331E-01
  19.906  0.338E-01  0.338E-01
  19.916  0.347E-01  0.347E-01
  19.926  0.358E-01  0.358E-01
  19.936  0.369E-01  0.369E-01
  19.946  0.381E-01  0.381E-01
  19.956  0.392E-01  0.392E-01
  19.966  0.402E-01  0.402E-01
  19.976  0.410E-01  0.410E-01
  19.986  0.416E-01  0.416E-01
  19.996  0.419E-01  0.419E-01
  20.006  0.421E-01  0.421E-01
  20.016  0.421E-01  0.421E-01
  20.026  0.418E-01  0.418E-01
  20.036  0.414E-01  0.414E-01
  20.046  0.410E-01  0.410E-01
  20.056  0.405E-01  0.405E-01
  20.066  0.400E-01  0.400E-01
  20.076  0.395E-01  0.395E-01
  20.086  0.393E-01  0.393E-01
  20.096  0.392E-01  0.392E-01
  20.106  0.393E-01  0.393E-01
  20.116  0.396E-01  0.396E-01
  20.126  0.402E-01  0.402E-01
  20.136  0.410E-01  0.410E-01
  20.146  0.421E-01  0.421E-01
  20.156  0.432E-01  0.432E-01
  20.166  0.445E-01  0.445E-01
  20.176  0.458E-01  0.458E-01
  20.186  0.471E-01  0.471E-01
  20.196  0.483E-01  0.483E-01
  20.206  0.494E-01  0.494E-01
  20.216  0.502E-01  0.502E-01
  20.226  0.508E-01  0.508E-01
  20.236  0.510E-01  0.510E-01
  20.246  0.510E-01  0.510E-01
  20.256  0.506E-01  0.506E-01
  20.266  0.500E-01  0.500E-01
  20.276  0.491E-01  0.491E-01
  20.286  0.481E-01  0.481E-01
  20.296  0.469E-01  0.469E-01
  20.306  0.456E-01  0.456E-01
  20.316  0.443E-01  0.443E-01
  20.326  0.432E-01  0.432E-01
  20.336  0.422E-01  0.422E-01
  20.346  0.415E-01  0.415E-01
  20.356  0.411E-01  0.411E-01
  20.366  0.409E-01  0.409E-01
  20.376  0.412E-01  0.412E-01
  20.386  0.417E-01  0.417E-01
  20.396  0.426E-01  0.426E-01
  20.406  0.437E-01  0.437E-01
  20.416  0.451E-01  0.451E-01
  20.426  0.467E-01  0.467E-01
  20.436  0.483E-01  0.483E-01
  20.446  0.499E-01  0.499E-01
  20.456  0.514E-01  0.514E-01
  20.466  0.527E-01  0.527E-01
  20.476  0.538E-01  0.538E-01
  20.486  0.545E-01  0.545E-01
  20.496  0.549E-01  0.549E-01
  20.506  0.549E-01  0.549E-01
  20.516  0.545E-01  0.545E-01
  20.526  0.536E-01  0.536E-01
  20.536  0.524E-01  0.524E-01
  20.546  0.508E-01  0.508E-01
  20.556  0.490E-01  0.490E-01
  20.566  0.469E-01  0.469E-01
  20.576  0.447E-01  0.447E-01
  20.586  0.425E-01  0.425E-01
  20.596  0.403E-01  0.403E-01
  20.606  0.382E-01  0.382E-01
  20.616  0.363E-01  0.363E-01
  20.626  0.346E-01  0.346E-01
  20.636  0.333E-01  0.333E-01
  20.646  0.322E-01  0.322E-01
  20.656  0.315E-01  0.315E-01
  20.666  0.312E-01  0.312E-01
  20.676  0.312E-01  0.312E-01
  20.686  0.315E-01  0.315E-01
  20.696  0.320E-01  0.320E-01
  20.706  0.327E-01  0.327E-01
  20.716  0.335E-01  0.335E-01
  20.726  0.344E-01  0.344E-01
  20.736  0.353E-01  0.353E-01
  20.746  0.361E-01  0.361E-01
  20.756  0.367E-01  0.367E-01
  20.766  0.372E-01  0.372E-01
  20.776  0.375E-01  0.375E-01
  20.786  0.376E-01  0.376E-01
  20.796  0.374E-01  0.374E-01
  20.806  0.370E-01  0.370E-01
  20.816  0.364E-01  0.364E-01
  20.826  0.357E-01  0.357E-01
  20.836  0.349E-01  0.349E-01
  20.846  0.341E-01  0.341E-01
  20.856  0.332E-01  0.332E-01
  20.866  0.325E-01  0.325E-01
  20.876  0.319E-01  0.319E-01
  20.886  0.316E-01  0.316E-01
  20.896  0.315E-01  0.315E-01
  20.906  0.317E-01  0.317E-01
  20.916  0.323E-01  0.323E-01
  20.926  0.332E-01  0.332E-01
  20.936  0.345E-01  0.345E-01
  20.946  0.363E-01  0.363E-01
  20.956  0.384E-01  0.384E-01
  20.966  0.408E-01  0.408E-01
  20.976  0.437E-01  0.437E-01
  20.986  0.468E-01  0.468E-01
  20.996  0.503E-01  0.503E-01
  21.006  0.540E-01  0.540E-01
  21.016  0.580E-01  0.580E-01
  21.026  0.622E-01  0.622E-01
  21.036  0.666E-01  0.666E-01
  21.046  0.711E-01  0.711E-01
  21.056  0.757E-01  0.757E-01
  21.066  0.804E-01  0.804E-01
  21.076  0.851E-01  0.851E-01
  21.086  0.898E-01  0.898E-01
  21.096  0.945E-01  0.945E-01
  21.106  0.990E-01  0.990E-01
  21.116  0.103E+00  0.103E+00
  21.126  0.107E+00  0.107E+00
  21.136  0.111E+00  0.111E+00
  21.146  0.115E+00  0.115E+00
  21.156  0.118E+00  0.118E+00
  21.166  0.120E+00  0.120E+00
  21.176  0.122E+00  0.122E+00
  21.186  0.124E+00  0.124E+00
  21.196  0.125E+00  0.125E+00
  21.206  0.126E+00  0.126E+00
  21.216  0.126E+00  0.126E+00
  21.226  0.125E+00  0.125E+00
  21.236  0.124E+00  0.124E+00
  21.246  0.123E+00  0.123E+00
  21.256  0.121E+00  0.121E+00
  21.266  0.119E+00  0.119E+00
  21.276  0.116E+00  0.116E+00
  21.286  0.114E+00  0.114E+00
  21.296  0.111E+00  0.111E+00
  21.306  0.108E+00  0.108E+00
  21.316  0.105E+00  0.105E+00
  21.326  0.102E+00  0.102E+00
  21.336  0.995E-01  0.995E-01
  21.346  0.968E-01  0.968E-01
  21.356  0.942E-01  0.942E-01
  21.366  0.919E-01  0.919E-01
  21.376  0.897E-01  0.897E-01
  21.386  0.877E-01  0.877E-01
  21.396  0.859E-01  0.859E-01
  21.406  0.843E-01  0.843E-01
  21.416  0.828E-01  0.828E-01
  21.426  0.815E-01  0.815E-01
  21.436  0.803E-01  0.803E-01
  21.446  0.793E-01  0.793E-01
  21.456  0.783E-01  0.783E-01
  21.466  0.773E-01  0.773E-01
  21.476  0.764E-01  0.764E-01
  21.486  0.755E-01  0.755E-01
  21.496  0.746E-01  0.746E-01
  21.506  0.737E-01  0.737E-01
  21.516  0.728E-01  0.728E-01
  21.526  0.719E-01  0.719E-01
  21.536  0.709E-01  0.709E-01
  21.546  0.700E-01  0.700E-01
  21.556  0.690E-01  0.690E-01
  21.566  0.681E-01  0.681E-01
  21.576  0.672E-01  0.672E-01
  21.586  0.663E-01  0.663E-01
  21.596  0.655E-01  0.655E-01
  21.606  0.647E-01  0.647E-01
  21.616  0.639E-01  0.639E-01
  21.626  0.632E-01  0.632E-01
  21.636  0.625E-01  0.625E-01
  21.646  0.618E-01  0.618E-01
  21.656  0.612E-01  0.612E-01
  21.666  0.605E-01  0.605E-01
  21.676  0.598E-01  0.598E-01
  21.686  0.592E-01  0.592E-01
  21.696  0.585E-01  0.585E-01
  21.706  0.577E-01  0.577E-01
  21.716  0.570E-01  0.570E-01
  21.726  0.562E-01  0.562E-01
  21.736  0.555E-01  0.555E-01
  21.746  0.546E-01  0.546E-01
  21.756  0.538E-01  0.538E-01
  21.766  0.529E-01  0.529E-01
  21.776  0.521E-01  0.521E-01
  21.786  0.512E-01  0.512E-01
  21.796  0.503E-01  0.503E-01
  21.806  0.493E-01  0.493E-01
  21.816  0.484E-01  0.484E-01
  21.826  0.474E-01  0.474E-01
  21.836  0.464E-01  0.464E-01
  21.846  0.454E-01  0.454E-01
  21.856  0.443E-01  0.443E-01
  21.866  0.432E-01  0.432E-01
  21.876  0.420E-01  0.420E-01
  21.886  0.408E-01  0.408E-01
  21.896  0.395E-01  0.395E-01
  21.906  0.382E-01  0.382E-01
  21.916  0.369E-01  0.369E-01
  21.926  0.355E-01  0.355E-01
  21.936  0.341E-01  0.341E-01
  21.946  0.326E-01  0.326E-01
  21.956  0.312E-01  0.312E-01
  21.966  0.297E-01  0.297E-01
  21.976  0.282E-01  0.282E-01
  21.986  0.268E-01  0.268E-01
  21.996  0.253E-01  0.253E-01
  22.006  0.239E-01  0.239E-01
  22.016  0.226E-01  0.226E-01
  22.026  0.212E-01  0.212E-01
  22.036  0.200E-01  0.200E-01
  22.046  0.188E-01  0.188E-01
  22.056  0.176E-01  0.176E-01
  22.066  0.166E-01  0.166E-01
  22.076  0.156E-01  0.156E-01
  22.086  0.147E-01  0.147E-01
  22.096  0.139E-01  0.139E-01
  22.106  0.132E-01  0.132E-01
  22.116  0.126E-01  0.126E-01
  22.126  0.120E-01  0.120E-01
  22.136  0.116E-01  0.116E-01
  22.146  0.112E-01  0.112E-01
  22.156  0.110E-01  0.110E-01
  22.166  0.108E-01  0.108E-01
  22.176  0.107E-01  0.107E-01
  22.186  0.107E-01  0.107E-01
  22.196  0.108E-01  0.108E-01
  22.206  0.110E-01  0.110E-01
  22.216  0.113E-01  0.113E-01
  22.226  0.117E-01  0.117E-01
  22.236  0.121E-01  0.121E-01
  22.246  0.127E-01  0.127E-01
  22.256  0.133E-01  0.133E-01
  22.266  0.139E-01  0.139E-01
  22.276  0.146E-01  0.146E-01
  22.286  0.154E-01  0.154E-01
  22.296  0.162E-01  0.162E-01
  22.306  0.169E-01  0.169E-01
  22.316  0.177E-01  0.177E-01
  22.326  0.185E-01  0.185E-01
  22.336  0.192E-01  0.192E-01
  22.346  0.200E-01  0.200E-01
  22.356  0.206E-01  0.206E-01
  22.366  0.213E-01  0.213E-01
  22.376  0.219E-01  0.219E-01
  22.386  0.224E-01  0.224E-01
  22.396  0.229E-01  0.229E-01
  22.406  0.233E-01  0.233E-01
  22.416  0.237E-01  0.237E-01
  22.426  0.241E-01  0.241E-01
  22.436  0.245E-01  0.245E-01
  22.446  0.248E-01  0.248E-01
  22.456  0.251E-01  0.251E-01
  22.466  0.254E-01  0.254E-01
  22.476  0.257E-01  0.257E-01
  22.486  0.260E-01  0.260E-01
  22.496  0.264E-01  0.264E-01
  22.506  0.268E-01  0.268E-01
  22.516  0.272E-01  0.272E-01
  22.526  0.276E-01  0.276E-01
  22.536  0.280E-01  0.280E-01
  22.546  0.285E-01  0.285E-01
  22.556  0.291E-01  0.291E-01
  22.566  0.296E-01  0.296E-01
  22.576  0.302E-01  0.302E-01
  22.586  0.308E-01  0.308E-01
  22.596  0.313E-01  0.313E-01
  22.606  0.319E-01  0.319E-01
  22.616  0.324E-01  0.324E-01
  22.626  0.329E-01  0.329E-01
  22.636  0.333E-01  0.333E-01
  22.646  0.336E-01  0.336E-01
  22.656  0.339E-01  0.339E-01
  22.666  0.339E-01  0.339E-01
  22.676  0.339E-01  0.339E-01
  22.686  0.336E-01  0.336E-01
  22.696  0.332E-01  0.332E-01
  22.706  0.326E-01  0.326E-01
  22.716  0.318E-01  0.318E-01
  22.726  0.308E-01  0.308E-01
  22.736  0.297E-01  0.297E-01
  22.746  0.284E-01  0.284E-01
  22.756  0.269E-01  0.269E-01
  22.766  0.254E-01  0.254E-01
  22.776  0.237E-01  0.237E-01
  22.786  0.220E-01  0.220E-01
  22.796  0.203E-01  0.203E-01
  22.806  0.186E-01  0.186E-01
  22.816  0.169E-01  0.169E-01
  22.826  0.153E-01  0.153E-01
  22.836  0.137E-01  0.137E-01
  22.846  0.123E-01  0.123E-01
  22.856  0.110E-01  0.110E-01
  22.866  0.987E-02  0.987E-02
  22.876  0.887E-02  0.887E-02
  22.886  0.802E-02  0.802E-02
  22.896  0.732E-02  0.732E-02
  22.906  0.677E-02  0.677E-02
  22.916  0.635E-02  0.635E-02
  22.926  0.605E-02  0.605E-02
  22.936  0.586E-02  0.586E-02
  22.946  0.576E-02  0.576E-02
  22.956  0.574E-02  0.574E-02
  22.966  0.577E-02  0.577E-02
  22.976  0.584E-02  0.584E-02
  22.986  0.593E-02  0.593E-02
  22.996  0.603E-02  0.603E-02
  23.006  0.612E-02  0.612E-02
  23.016  0.618E-02  0.618E-02
  23.026  0.621E-02  0.621E-02
  23.036  0.621E-02  0.621E-02
  23.046  0.615E-02  0.615E-02
  23.056  0.605E-02  0.605E-02
  23.066  0.591E-02  0.591E-02
  23.076  0.571E-02  0.571E-02
  23.086  0.548E-02  0.548E-02
  23.096  0.521E-02  0.521E-02
  23.106  0.490E-02  0.490E-02
  23.116  0.458E-02  0.458E-02
  23.126  0.425E-02  0.425E-02
  23.136  0.391E-02  0.391E-02
  23.146  0.357E-02  0.357E-02
  23.156  0.324E-02  0.324E-02
  23.166  0.293E-02  0.293E-02
  23.176  0.264E-02  0.264E-02
  23.186  0.238E-02  0.238E-02
  23.196  0.216E-02  0.216E-02
  23.206  0.196E-02  0.196E-02
  23.216  0.180E-02  0.180E-02
  23.226  0.168E-02  0.168E-02
  23.236  0.159E-02  0.159E-02
  23.246  0.153E-02  0.153E-02
  23.256  0.150E-02  0.150E-02
  23.266  0.150E-02  0.150E-02
  23.276  0.153E-02  0.153E-02
  23.286  0.157E-02  0.157E-02
  23.296  0.163E-02  0.163E-02
  23.306  0.170E-02  0.170E-02
  23.316  0.178E-02  0.178E-02
  23.326  0.186E-02  0.186E-02
  23.336  0.194E-02  0.194E-02
  23.346  0.202E-02  0.202E-02
  23.356  0.209E-02  0.209E-02
  23.366  0.214E-02  0.214E-02
  23.376  0.219E-02  0.219E-02
  23.386  0.222E-02  0.222E-02
  23.396  0.224E-02  0.224E-02
  23.406  0.224E-02  0.224E-02
  23.416  0.222E-02  0.222E-02
  23.426  0.219E-02  0.219E-02
  23.436  0.214E-02  0.214E-02
  23.446  0.209E-02  0.209E-02
  23.456  0.202E-02  0.202E-02
  23.466  0.194E-02  0.194E-02
  23.476  0.185E-02  0.185E-02
  23.486  0.177E-02  0.177E-02
  23.496  0.168E-02  0.168E-02
  23.506  0.160E-02  0.160E-02
  23.516  0.151E-02  0.151E-02
  23.526  0.144E-02  0.144E-02
  23.536  0.137E-02  0.137E-02
  23.546  0.131E-02  0.131E-02
  23.556  0.126E-02  0.126E-02
  23.566  0.122E-02  0.122E-02
  23.576  0.119E-02  0.119E-02
  23.586  0.116E-02  0.116E-02
  23.596  0.115E-02  0.115E-02
  23.606  0.115E-02  0.115E-02
  23.616  0.115E-02  0.115E-02
  23.626  0.116E-02  0.116E-02
  23.636  0.119E-02  0.119E-02
  23.646  0.122E-02  0.122E-02
  23.656  0.126E-02  0.126E-02
  23.666  0.132E-02  0.132E-02
  23.676  0.139E-02  0.139E-02
  23.686  0.147E-02  0.147E-02
  23.696  0.157E-02  0.157E-02
  23.706  0.168E-02  0.168E-02
  23.716  0.181E-02  0.181E-02
  23.726  0.196E-02  0.196E-02
  23.736  0.212E-02  0.212E-02
  23.746  0.230E-02  0.230E-02
  23.756  0.248E-02  0.248E-02
  23.766  0.268E-02  0.268E-02
  23.776  0.287E-02  0.287E-02
  23.786  0.307E-02  0.307E-02
  23.796  0.326E-02  0.326E-02
  23.806  0.344E-02  0.344E-02
  23.816  0.360E-02  0.360E-02
  23.826  0.374E-02  0.374E-02
  23.836  0.386E-02  0.386E-02
  23.846  0.394E-02  0.394E-02
  23.856  0.399E-02  0.399E-02
  23.866  0.401E-02  0.401E-02
  23.876  0.398E-02  0.398E-02
  23.886  0.392E-02  0.392E-02
  23.896  0.383E-02  0.383E-02
  23.906  0.370E-02  0.370E-02
  23.916  0.354E-02  0.354E-02
  23.926  0.336E-02  0.336E-02
  23.936  0.315E-02  0.315E-02
  23.946  0.293E-02  0.293E-02
  23.956  0.269E-02  0.269E-02
  23.966  0.245E-02  0.245E-02
  23.976  0.221E-02  0.221E-02
  23.986  0.198E-02  0.198E-02
  23.996  0.175E-02  0.175E-02
  24.006  0.153E-02  0.153E-02
  24.016  0.132E-02  0.132E-02
  24.026  0.114E-02  0.114E-02
  24.036  0.965E-03  0.965E-03
  24.046  0.812E-03  0.812E-03
  24.056  0.676E-03  0.676E-03
  24.066  0.557E-03  0.557E-03
  24.076  0.454E-03  0.454E-03
  24.086  0.367E-03  0.367E-03
  24.096  0.293E-03  0.293E-03
  24.106  0.232E-03  0.232E-03
  24.116  0.181E-03  0.181E-03
  24.126  0.141E-03  0.141E-03
  24.136  0.108E-03  0.108E-03
  24.146  0.820E-04  0.820E-04
  24.156  0.616E-04  0.616E-04
  24.166  0.459E-04  0.459E-04
  24.176  0.338E-04  0.338E-04
  24.186  0.246E-04  0.246E-04
  24.196  0.178E-04  0.178E-04
  24.206  0.127E-04  0.127E-04
  24.216  0.896E-05  0.896E-05
  24.226  0.627E-05  0.627E-05
  24.236  0.434E-05  0.434E-05
  24.246  0.297E-05  0.297E-05
  24.256  0.201E-05  0.201E-05
  24.266  0.135E-05  0.135E-05
  24.276  0.898E-06  0.898E-06
  24.286  0.590E-06  0.590E-06
  24.296  0.384E-06  0.384E-06
  24.306  0.247E-06  0.247E-06
  24.316  0.157E-06  0.157E-06
  24.326  0.991E-07  0.991E-07
  24.336  0.618E-07  0.618E-07
  24.346  0.382E-07  0.382E-07
  24.356  0.233E-07  0.233E-07
  24.366  0.141E-07  0.141E-07
  24.376  0.843E-08  0.843E-08
  24.386  0.499E-08  0.499E-08
  24.396  0.292E-08  0.292E-08
  24.406  0.169E-08  0.169E-08
  24.416  0.971E-09  0.971E-09
  24.426  0.551E-09  0.551E-09
  24.436  0.309E-09  0.309E-09
  24.446  0.172E-09  0.172E-09
  24.456  0.945E-10  0.945E-10
  24.466  0.514E-10  0.514E-10
  24.476  0.277E-10  0.277E-10
  24.486  0.147E-10  0.147E-10
  24.496  0.777E-11  0.777E-11
  24.506  0.405E-11  0.405E-11
  24.516  0.209E-11  0.209E-11
  24.526  0.107E-11  0.107E-11
  24.536  0.535E-12  0.535E-12
  24.546  0.268E-12  0.268E-12
  24.556  0.132E-12  0.132E-12
