#  E (eV)   dos(E)     Int dos(E) EFermi =    6.642 eV
   9.000  0.1082E+01  0.1002E+02
   9.010  0.1061E+01  0.1003E+02
   9.020  0.1040E+01  0.1004E+02
   9.030  0.1020E+01  0.1005E+02
   9.040  0.1005E+01  0.1006E+02
   9.050  0.9902E+00  0.1007E+02
   9.060  0.9757E+00  0.1008E+02
   9.070  0.9617E+00  0.1009E+02
   9.080  0.9480E+00  0.1010E+02
   9.090  0.9348E+00  0.1011E+02
   9.100  0.9219E+00  0.1012E+02
   9.110  0.9094E+00  0.1013E+02
   9.120  0.8973E+00  0.1014E+02
   9.130  0.8856E+00  0.1015E+02
   9.140  0.8743E+00  0.1016E+02
   9.150  0.8634E+00  0.1017E+02
   9.160  0.8528E+00  0.1017E+02
   9.170  0.8424E+00  0.1018E+02
   9.180  0.8332E+00  0.1019E+02
   9.190  0.8258E+00  0.1020E+02
   9.200  0.8172E+00  0.1021E+02
   9.210  0.8093E+00  0.1022E+02
   9.220  0.8022E+00  0.1022E+02
   9.230  0.7959E+00  0.1023E+02
   9.240  0.7904E+00  0.1024E+02
   9.250  0.7857E+00  0.1025E+02
   9.260  0.7814E+00  0.1026E+02
   9.270  0.7777E+00  0.1026E+02
   9.280  0.7744E+00  0.1027E+02
   9.290  0.7767E+00  0.1028E+02
   9.300  0.7848E+00  0.1029E+02
   9.310  0.7947E+00  0.1029E+02
   9.320  0.8066E+00  0.1030E+02
   9.330  0.8202E+00  0.1031E+02
   9.340  0.8358E+00  0.1032E+02
   9.350  0.8532E+00  0.1033E+02
   9.360  0.8725E+00  0.1034E+02
   9.370  0.8935E+00  0.1034E+02
   9.380  0.9198E+00  0.1035E+02
   9.390  0.9662E+00  0.1036E+02
   9.400  0.1035E+01  0.1037E+02
   9.410  0.1097E+01  0.1038E+02
   9.420  0.1154E+01  0.1040E+02
   9.430  0.1204E+01  0.1041E+02
   9.440  0.1278E+01  0.1042E+02
   9.450  0.1307E+01  0.1043E+02
   9.460  0.1362E+01  0.1045E+02
   9.470  0.1413E+01  0.1046E+02
   9.480  0.1462E+01  0.1047E+02
   9.490  0.1508E+01  0.1049E+02
   9.500  0.1558E+01  0.1050E+02
   9.510  0.1609E+01  0.1052E+02
   9.520  0.1650E+01  0.1054E+02
   9.530  0.1687E+01  0.1055E+02
   9.540  0.1718E+01  0.1057E+02
   9.550  0.1743E+01  0.1059E+02
   9.560  0.1761E+01  0.1060E+02
   9.570  0.1766E+01  0.1062E+02
   9.580  0.1746E+01  0.1064E+02
   9.590  0.1755E+01  0.1066E+02
   9.600  0.1785E+01  0.1067E+02
   9.610  0.1817E+01  0.1069E+02
   9.620  0.1852E+01  0.1071E+02
   9.630  0.1889E+01  0.1073E+02
   9.640  0.1927E+01  0.1075E+02
   9.650  0.1968E+01  0.1077E+02
   9.660  0.2010E+01  0.1079E+02
   9.670  0.2054E+01  0.1081E+02
   9.680  0.2100E+01  0.1083E+02
   9.690  0.2162E+01  0.1085E+02
   9.700  0.2230E+01  0.1087E+02
   9.710  0.2297E+01  0.1090E+02
   9.720  0.2326E+01  0.1092E+02
   9.730  0.2273E+01  0.1094E+02
   9.740  0.2213E+01  0.1096E+02
   9.750  0.2143E+01  0.1099E+02
   9.760  0.2077E+01  0.1101E+02
   9.770  0.2038E+01  0.1103E+02
   9.780  0.2005E+01  0.1105E+02
   9.790  0.1982E+01  0.1107E+02
   9.800  0.1986E+01  0.1109E+02
   9.810  0.1987E+01  0.1111E+02
   9.820  0.1985E+01  0.1113E+02
   9.830  0.1981E+01  0.1115E+02
   9.840  0.1973E+01  0.1117E+02
   9.850  0.1962E+01  0.1119E+02
   9.860  0.1949E+01  0.1121E+02
   9.870  0.1932E+01  0.1123E+02
   9.880  0.1914E+01  0.1124E+02
   9.890  0.1892E+01  0.1126E+02
   9.900  0.1874E+01  0.1128E+02
   9.910  0.1862E+01  0.1130E+02
   9.920  0.1852E+01  0.1132E+02
   9.930  0.1837E+01  0.1134E+02
   9.940  0.1828E+01  0.1136E+02
   9.950  0.1803E+01  0.1137E+02
   9.960  0.1792E+01  0.1139E+02
   9.970  0.1782E+01  0.1141E+02
   9.980  0.1772E+01  0.1143E+02
   9.990  0.1761E+01  0.1145E+02
  10.000  0.1751E+01  0.1146E+02
  10.010  0.1740E+01  0.1148E+02
  10.020  0.1729E+01  0.1150E+02
  10.030  0.1718E+01  0.1152E+02
  10.040  0.1707E+01  0.1153E+02
  10.050  0.1696E+01  0.1155E+02
  10.060  0.1685E+01  0.1157E+02
  10.070  0.1674E+01  0.1158E+02
  10.080  0.1663E+01  0.1160E+02
  10.090  0.1652E+01  0.1162E+02
  10.100  0.1640E+01  0.1163E+02
  10.110  0.1629E+01  0.1165E+02
  10.120  0.1618E+01  0.1167E+02
  10.130  0.1606E+01  0.1168E+02
  10.140  0.1591E+01  0.1170E+02
  10.150  0.1575E+01  0.1171E+02
  10.160  0.1560E+01  0.1173E+02
  10.170  0.1545E+01  0.1174E+02
  10.180  0.1529E+01  0.1176E+02
  10.190  0.1514E+01  0.1178E+02
  10.200  0.1498E+01  0.1179E+02
  10.210  0.1483E+01  0.1181E+02
  10.220  0.1468E+01  0.1182E+02
  10.230  0.1452E+01  0.1183E+02
  10.240  0.1436E+01  0.1185E+02
  10.250  0.1421E+01  0.1186E+02
  10.260  0.1406E+01  0.1188E+02
  10.270  0.1437E+01  0.1189E+02
  10.280  0.1500E+01  0.1191E+02
  10.290  0.1371E+01  0.1192E+02
  10.300  0.1350E+01  0.1193E+02
  10.310  0.1337E+01  0.1195E+02
  10.320  0.1330E+01  0.1196E+02
  10.330  0.1322E+01  0.1197E+02
  10.340  0.1317E+01  0.1199E+02
  10.350  0.1309E+01  0.1200E+02
  10.360  0.1302E+01  0.1201E+02
  10.370  0.1298E+01  0.1203E+02
  10.380  0.1295E+01  0.1204E+02
  10.390  0.1294E+01  0.1205E+02
  10.400  0.1292E+01  0.1207E+02
  10.410  0.1288E+01  0.1208E+02
  10.420  0.1287E+01  0.1209E+02
  10.430  0.1278E+01  0.1210E+02
  10.440  0.1243E+01  0.1212E+02
  10.450  0.1202E+01  0.1213E+02
  10.460  0.1212E+01  0.1214E+02
  10.470  0.1204E+01  0.1215E+02
  10.480  0.1189E+01  0.1217E+02
  10.490  0.1175E+01  0.1218E+02
  10.500  0.1162E+01  0.1219E+02
  10.510  0.1150E+01  0.1220E+02
  10.520  0.1139E+01  0.1221E+02
  10.530  0.1130E+01  0.1222E+02
  10.540  0.1121E+01  0.1223E+02
  10.550  0.1113E+01  0.1225E+02
  10.560  0.1106E+01  0.1226E+02
  10.570  0.1101E+01  0.1227E+02
  10.580  0.1096E+01  0.1228E+02
  10.590  0.1092E+01  0.1229E+02
  10.600  0.1090E+01  0.1230E+02
  10.610  0.1088E+01  0.1231E+02
  10.620  0.1088E+01  0.1232E+02
  10.630  0.1090E+01  0.1233E+02
  10.640  0.1093E+01  0.1234E+02
  10.650  0.1096E+01  0.1235E+02
  10.660  0.1105E+01  0.1237E+02
  10.670  0.1115E+01  0.1238E+02
  10.680  0.1126E+01  0.1239E+02
  10.690  0.1138E+01  0.1240E+02
  10.700  0.1152E+01  0.1241E+02
  10.710  0.1156E+01  0.1242E+02
  10.720  0.1153E+01  0.1243E+02
  10.730  0.1162E+01  0.1245E+02
  10.740  0.1185E+01  0.1246E+02
  10.750  0.1222E+01  0.1247E+02
  10.760  0.1269E+01  0.1248E+02
  10.770  0.1323E+01  0.1249E+02
  10.780  0.1361E+01  0.1251E+02
  10.790  0.1354E+01  0.1252E+02
  10.800  0.1337E+01  0.1254E+02
  10.810  0.1310E+01  0.1255E+02
  10.820  0.1274E+01  0.1256E+02
  10.830  0.1229E+01  0.1257E+02
  10.840  0.1184E+01  0.1259E+02
  10.850  0.1163E+01  0.1260E+02
  10.860  0.1149E+01  0.1261E+02
  10.870  0.1135E+01  0.1262E+02
  10.880  0.1121E+01  0.1263E+02
  10.890  0.1106E+01  0.1264E+02
  10.900  0.1092E+01  0.1265E+02
  10.910  0.1078E+01  0.1267E+02
  10.920  0.1064E+01  0.1268E+02
  10.930  0.1049E+01  0.1269E+02
  10.940  0.1035E+01  0.1270E+02
  10.950  0.1020E+01  0.1271E+02
  10.960  0.1008E+01  0.1272E+02
  10.970  0.9973E+00  0.1273E+02
  10.980  0.9876E+00  0.1274E+02
  10.990  0.9788E+00  0.1275E+02
  11.000  0.9711E+00  0.1276E+02
  11.010  0.9640E+00  0.1277E+02
  11.020  0.9550E+00  0.1278E+02
  11.030  0.9469E+00  0.1279E+02
  11.040  0.9413E+00  0.1279E+02
  11.050  0.9389E+00  0.1280E+02
  11.060  0.9373E+00  0.1281E+02
  11.070  0.9594E+00  0.1282E+02
  11.080  0.1035E+01  0.1283E+02
  11.090  0.1119E+01  0.1284E+02
  11.100  0.1224E+01  0.1286E+02
  11.110  0.1312E+01  0.1287E+02
  11.120  0.1258E+01  0.1288E+02
  11.130  0.1135E+01  0.1289E+02
  11.140  0.1116E+01  0.1290E+02
  11.150  0.1116E+01  0.1292E+02
  11.160  0.1117E+01  0.1293E+02
  11.170  0.1118E+01  0.1294E+02
  11.180  0.1120E+01  0.1295E+02
  11.190  0.1123E+01  0.1296E+02
  11.200  0.1126E+01  0.1297E+02
  11.210  0.1141E+01  0.1298E+02
  11.220  0.1158E+01  0.1299E+02
  11.230  0.1178E+01  0.1301E+02
  11.240  0.1197E+01  0.1302E+02
  11.250  0.1211E+01  0.1303E+02
  11.260  0.1222E+01  0.1304E+02
  11.270  0.1229E+01  0.1305E+02
  11.280  0.1234E+01  0.1307E+02
  11.290  0.1235E+01  0.1308E+02
  11.300  0.1233E+01  0.1309E+02
  11.310  0.1228E+01  0.1310E+02
  11.320  0.1220E+01  0.1312E+02
  11.330  0.1214E+01  0.1313E+02
  11.340  0.1211E+01  0.1314E+02
  11.350  0.1209E+01  0.1315E+02
  11.360  0.1207E+01  0.1316E+02
  11.370  0.1205E+01  0.1318E+02
  11.380  0.1203E+01  0.1319E+02
  11.390  0.1201E+01  0.1320E+02
  11.400  0.1199E+01  0.1321E+02
  11.410  0.1198E+01  0.1322E+02
  11.420  0.1196E+01  0.1324E+02
  11.430  0.1195E+01  0.1325E+02
  11.440  0.1194E+01  0.1326E+02
  11.450  0.1193E+01  0.1327E+02
  11.460  0.1192E+01  0.1328E+02
  11.470  0.1191E+01  0.1330E+02
  11.480  0.1190E+01  0.1331E+02
  11.490  0.1189E+01  0.1332E+02
  11.500  0.1187E+01  0.1333E+02
  11.510  0.1185E+01  0.1334E+02
  11.520  0.1183E+01  0.1336E+02
  11.530  0.1181E+01  0.1337E+02
  11.540  0.1179E+01  0.1338E+02
  11.550  0.1177E+01  0.1339E+02
  11.560  0.1175E+01  0.1340E+02
  11.570  0.1173E+01  0.1341E+02
  11.580  0.1171E+01  0.1343E+02
  11.590  0.1169E+01  0.1344E+02
  11.600  0.1168E+01  0.1345E+02
  11.610  0.1167E+01  0.1346E+02
  11.620  0.1168E+01  0.1347E+02
  11.630  0.1169E+01  0.1348E+02
  11.640  0.1169E+01  0.1350E+02
  11.650  0.1169E+01  0.1351E+02
  11.660  0.1168E+01  0.1352E+02
  11.670  0.1167E+01  0.1353E+02
  11.680  0.1166E+01  0.1354E+02
  11.690  0.1164E+01  0.1355E+02
  11.700  0.1163E+01  0.1357E+02
  11.710  0.1164E+01  0.1358E+02
  11.720  0.1165E+01  0.1359E+02
  11.730  0.1167E+01  0.1360E+02
  11.740  0.1168E+01  0.1361E+02
  11.750  0.1170E+01  0.1362E+02
  11.760  0.1171E+01  0.1364E+02
  11.770  0.1173E+01  0.1365E+02
  11.780  0.1174E+01  0.1366E+02
  11.790  0.1175E+01  0.1367E+02
  11.800  0.1177E+01  0.1368E+02
  11.810  0.1178E+01  0.1369E+02
  11.820  0.1179E+01  0.1371E+02
  11.830  0.1180E+01  0.1372E+02
  11.840  0.1181E+01  0.1373E+02
  11.850  0.1182E+01  0.1374E+02
  11.860  0.1182E+01  0.1375E+02
  11.870  0.1181E+01  0.1377E+02
  11.880  0.1180E+01  0.1378E+02
  11.890  0.1178E+01  0.1379E+02
  11.900  0.1176E+01  0.1380E+02
  11.910  0.1175E+01  0.1381E+02
  11.920  0.1172E+01  0.1382E+02
  11.930  0.1170E+01  0.1384E+02
  11.940  0.1167E+01  0.1385E+02
  11.950  0.1165E+01  0.1386E+02
  11.960  0.1165E+01  0.1387E+02
  11.970  0.1165E+01  0.1388E+02
  11.980  0.1162E+01  0.1389E+02
  11.990  0.1157E+01  0.1391E+02
  12.000  0.1152E+01  0.1392E+02
  12.010  0.1146E+01  0.1393E+02
  12.020  0.1138E+01  0.1394E+02
  12.030  0.1130E+01  0.1395E+02
  12.040  0.1121E+01  0.1396E+02
  12.050  0.1110E+01  0.1397E+02
  12.060  0.1098E+01  0.1399E+02
  12.070  0.1085E+01  0.1400E+02
  12.080  0.1071E+01  0.1401E+02
  12.090  0.1055E+01  0.1402E+02
  12.100  0.1038E+01  0.1403E+02
  12.110  0.1022E+01  0.1404E+02
  12.120  0.1010E+01  0.1405E+02
  12.130  0.9997E+00  0.1406E+02
  12.140  0.9896E+00  0.1407E+02
  12.150  0.9804E+00  0.1408E+02
  12.160  0.9729E+00  0.1409E+02
  12.170  0.9668E+00  0.1410E+02
  12.180  0.9623E+00  0.1411E+02
  12.190  0.9592E+00  0.1412E+02
  12.200  0.9577E+00  0.1413E+02
  12.210  0.9577E+00  0.1414E+02
  12.220  0.9592E+00  0.1415E+02
  12.230  0.9410E+00  0.1416E+02
  12.240  0.9283E+00  0.1416E+02
  12.250  0.9191E+00  0.1417E+02
  12.260  0.9091E+00  0.1418E+02
  12.270  0.9293E+00  0.1419E+02
  12.280  0.9288E+00  0.1420E+02
  12.290  0.8717E+00  0.1421E+02
  12.300  0.8687E+00  0.1422E+02
  12.310  0.8660E+00  0.1423E+02
  12.320  0.8630E+00  0.1424E+02
  12.330  0.8586E+00  0.1425E+02
  12.340  0.8565E+00  0.1425E+02
  12.350  0.8561E+00  0.1426E+02
  12.360  0.8561E+00  0.1427E+02
  12.370  0.8563E+00  0.1428E+02
  12.380  0.8567E+00  0.1429E+02
  12.390  0.8573E+00  0.1430E+02
  12.400  0.8583E+00  0.1431E+02
  12.410  0.8598E+00  0.1431E+02
  12.420  0.8619E+00  0.1432E+02
  12.430  0.8644E+00  0.1433E+02
  12.440  0.8671E+00  0.1434E+02
  12.450  0.8701E+00  0.1435E+02
  12.460  0.8776E+00  0.1436E+02
  12.470  0.8869E+00  0.1437E+02
  12.480  0.8980E+00  0.1437E+02
  12.490  0.9086E+00  0.1438E+02
  12.500  0.9191E+00  0.1439E+02
  12.510  0.9295E+00  0.1440E+02
  12.520  0.9397E+00  0.1441E+02
  12.530  0.9498E+00  0.1442E+02
  12.540  0.9598E+00  0.1443E+02
  12.550  0.9697E+00  0.1444E+02
  12.560  0.9794E+00  0.1445E+02
  12.570  0.9891E+00  0.1446E+02
  12.580  0.9985E+00  0.1447E+02
  12.590  0.1008E+01  0.1448E+02
  12.600  0.1017E+01  0.1449E+02
  12.610  0.1026E+01  0.1450E+02
  12.620  0.1035E+01  0.1451E+02
  12.630  0.1044E+01  0.1452E+02
  12.640  0.1053E+01  0.1453E+02
  12.650  0.1062E+01  0.1454E+02
  12.660  0.1071E+01  0.1455E+02
  12.670  0.1080E+01  0.1456E+02
  12.680  0.1089E+01  0.1457E+02
  12.690  0.1098E+01  0.1459E+02
  12.700  0.1106E+01  0.1460E+02
  12.710  0.1107E+01  0.1461E+02
  12.720  0.1107E+01  0.1462E+02
  12.730  0.1110E+01  0.1463E+02
  12.740  0.1114E+01  0.1464E+02
  12.750  0.1118E+01  0.1465E+02
  12.760  0.1122E+01  0.1466E+02
  12.770  0.1125E+01  0.1467E+02
  12.780  0.1128E+01  0.1469E+02
  12.790  0.1130E+01  0.1470E+02
  12.800  0.1132E+01  0.1471E+02
  12.810  0.1133E+01  0.1472E+02
  12.820  0.1134E+01  0.1473E+02
  12.830  0.1135E+01  0.1474E+02
  12.840  0.1135E+01  0.1475E+02
  12.850  0.1134E+01  0.1476E+02
  12.860  0.1131E+01  0.1478E+02
  12.870  0.1128E+01  0.1479E+02
  12.880  0.1125E+01  0.1480E+02
  12.890  0.1123E+01  0.1481E+02
  12.900  0.1122E+01  0.1482E+02
  12.910  0.1122E+01  0.1483E+02
  12.920  0.1122E+01  0.1484E+02
  12.930  0.1122E+01  0.1485E+02
  12.940  0.1124E+01  0.1487E+02
  12.950  0.1125E+01  0.1488E+02
  12.960  0.1122E+01  0.1489E+02
  12.970  0.1120E+01  0.1490E+02
  12.980  0.1117E+01  0.1491E+02
  12.990  0.1115E+01  0.1492E+02
  13.000  0.1113E+01  0.1493E+02
  13.010  0.1111E+01  0.1494E+02
  13.020  0.1110E+01  0.1496E+02
  13.030  0.1108E+01  0.1497E+02
  13.040  0.1106E+01  0.1498E+02
  13.050  0.1101E+01  0.1499E+02
  13.060  0.1096E+01  0.1500E+02
  13.070  0.1090E+01  0.1501E+02
  13.080  0.1085E+01  0.1502E+02
  13.090  0.1080E+01  0.1503E+02
  13.100  0.1074E+01  0.1504E+02
  13.110  0.1068E+01  0.1505E+02
  13.120  0.1062E+01  0.1506E+02
  13.130  0.1056E+01  0.1507E+02
  13.140  0.1050E+01  0.1509E+02
  13.150  0.1043E+01  0.1510E+02
  13.160  0.1036E+01  0.1511E+02
  13.170  0.1029E+01  0.1512E+02
  13.180  0.1022E+01  0.1513E+02
  13.190  0.1015E+01  0.1514E+02
  13.200  0.1008E+01  0.1515E+02
  13.210  0.9998E+00  0.1516E+02
  13.220  0.9918E+00  0.1517E+02
  13.230  0.9836E+00  0.1518E+02
  13.240  0.9751E+00  0.1519E+02
  13.250  0.9665E+00  0.1520E+02
  13.260  0.9574E+00  0.1521E+02
  13.270  0.9476E+00  0.1522E+02
  13.280  0.9379E+00  0.1523E+02
  13.290  0.9282E+00  0.1523E+02
  13.300  0.9184E+00  0.1524E+02
  13.310  0.9083E+00  0.1525E+02
  13.320  0.8981E+00  0.1526E+02
  13.330  0.8877E+00  0.1527E+02
  13.340  0.8767E+00  0.1528E+02
  13.350  0.8654E+00  0.1529E+02
  13.360  0.8540E+00  0.1530E+02
  13.370  0.8424E+00  0.1531E+02
  13.380  0.8312E+00  0.1531E+02
  13.390  0.8203E+00  0.1532E+02
  13.400  0.8098E+00  0.1533E+02
  13.410  0.7997E+00  0.1534E+02
  13.420  0.7900E+00  0.1535E+02
  13.430  0.7806E+00  0.1535E+02
  13.440  0.7717E+00  0.1536E+02
  13.450  0.7633E+00  0.1537E+02
  13.460  0.7554E+00  0.1538E+02
  13.470  0.7479E+00  0.1538E+02
  13.480  0.7408E+00  0.1539E+02
  13.490  0.7340E+00  0.1540E+02
  13.500  0.7276E+00  0.1541E+02
  13.510  0.7214E+00  0.1541E+02
  13.520  0.7148E+00  0.1542E+02
  13.530  0.7076E+00  0.1543E+02
  13.540  0.7006E+00  0.1544E+02
  13.550  0.6940E+00  0.1544E+02
  13.560  0.6876E+00  0.1545E+02
  13.570  0.6815E+00  0.1546E+02
  13.580  0.6756E+00  0.1546E+02
  13.590  0.6701E+00  0.1547E+02
  13.600  0.6649E+00  0.1548E+02
  13.610  0.6599E+00  0.1548E+02
  13.620  0.6552E+00  0.1549E+02
  13.630  0.6508E+00  0.1550E+02
  13.640  0.6467E+00  0.1550E+02
  13.650  0.6429E+00  0.1551E+02
  13.660  0.6396E+00  0.1552E+02
  13.670  0.6369E+00  0.1552E+02
  13.680  0.6338E+00  0.1553E+02
  13.690  0.6304E+00  0.1553E+02
  13.700  0.6269E+00  0.1554E+02
  13.710  0.6216E+00  0.1555E+02
  13.720  0.6142E+00  0.1555E+02
  13.730  0.6075E+00  0.1556E+02
  13.740  0.6004E+00  0.1557E+02
  13.750  0.5901E+00  0.1557E+02
  13.760  0.5784E+00  0.1558E+02
  13.770  0.5653E+00  0.1558E+02
  13.780  0.5507E+00  0.1559E+02
  13.790  0.5347E+00  0.1559E+02
  13.800  0.5173E+00  0.1560E+02
  13.810  0.5074E+00  0.1560E+02
  13.820  0.5028E+00  0.1561E+02
  13.830  0.4987E+00  0.1561E+02
  13.840  0.4950E+00  0.1562E+02
  13.850  0.4919E+00  0.1562E+02
  13.860  0.4893E+00  0.1563E+02
  13.870  0.4877E+00  0.1563E+02
  13.880  0.4863E+00  0.1564E+02
  13.890  0.4852E+00  0.1564E+02
  13.900  0.4842E+00  0.1565E+02
  13.910  0.4833E+00  0.1565E+02
  13.920  0.4825E+00  0.1566E+02
  13.930  0.4818E+00  0.1566E+02
  13.940  0.4812E+00  0.1567E+02
  13.950  0.4807E+00  0.1567E+02
  13.960  0.4802E+00  0.1568E+02
  13.970  0.4799E+00  0.1568E+02
  13.980  0.4796E+00  0.1569E+02
  13.990  0.4793E+00  0.1569E+02
  14.000  0.4786E+00  0.1570E+02
  14.010  0.4774E+00  0.1570E+02
  14.020  0.4757E+00  0.1571E+02
  14.030  0.4736E+00  0.1571E+02
  14.040  0.4736E+00  0.1572E+02
  14.050  0.4841E+00  0.1572E+02
  14.060  0.4900E+00  0.1573E+02
  14.070  0.4915E+00  0.1573E+02
  14.080  0.4885E+00  0.1574E+02
  14.090  0.4810E+00  0.1574E+02
  14.100  0.4691E+00  0.1574E+02
  14.110  0.4526E+00  0.1575E+02
  14.120  0.4317E+00  0.1575E+02
  14.130  0.4063E+00  0.1576E+02
  14.140  0.3770E+00  0.1576E+02
  14.150  0.3514E+00  0.1577E+02
  14.160  0.3315E+00  0.1577E+02
  14.170  0.3172E+00  0.1577E+02
  14.180  0.3047E+00  0.1578E+02
  14.190  0.2929E+00  0.1578E+02
  14.200  0.2818E+00  0.1578E+02
  14.210  0.2715E+00  0.1578E+02
  14.220  0.2619E+00  0.1579E+02
  14.230  0.2531E+00  0.1579E+02
  14.240  0.2450E+00  0.1579E+02
  14.250  0.2395E+00  0.1579E+02
  14.260  0.2378E+00  0.1580E+02
  14.270  0.2361E+00  0.1580E+02
  14.280  0.2344E+00  0.1580E+02
  14.290  0.2327E+00  0.1580E+02
  14.300  0.2310E+00  0.1581E+02
  14.310  0.2293E+00  0.1581E+02
  14.320  0.2276E+00  0.1581E+02
  14.330  0.2260E+00  0.1581E+02
  14.340  0.2243E+00  0.1581E+02
  14.350  0.2227E+00  0.1582E+02
  14.360  0.2210E+00  0.1582E+02
  14.370  0.2194E+00  0.1582E+02
  14.380  0.2178E+00  0.1582E+02
  14.390  0.2162E+00  0.1583E+02
  14.400  0.2146E+00  0.1583E+02
  14.410  0.2130E+00  0.1583E+02
  14.420  0.2114E+00  0.1583E+02
  14.430  0.2099E+00  0.1583E+02
  14.440  0.2083E+00  0.1584E+02
  14.450  0.2067E+00  0.1584E+02
  14.460  0.2052E+00  0.1584E+02
  14.470  0.2037E+00  0.1584E+02
  14.480  0.2022E+00  0.1584E+02
  14.490  0.2006E+00  0.1585E+02
  14.500  0.1991E+00  0.1585E+02
  14.510  0.1976E+00  0.1585E+02
  14.520  0.1962E+00  0.1585E+02
  14.530  0.1947E+00  0.1585E+02
  14.540  0.1932E+00  0.1586E+02
  14.550  0.1918E+00  0.1586E+02
  14.560  0.1904E+00  0.1586E+02
  14.570  0.1890E+00  0.1586E+02
  14.580  0.1876E+00  0.1586E+02
  14.590  0.1863E+00  0.1587E+02
  14.600  0.1850E+00  0.1587E+02
  14.610  0.1837E+00  0.1587E+02
  14.620  0.1824E+00  0.1587E+02
  14.630  0.1812E+00  0.1587E+02
  14.640  0.1799E+00  0.1588E+02
  14.650  0.1787E+00  0.1588E+02
  14.660  0.1775E+00  0.1588E+02
  14.670  0.1764E+00  0.1588E+02
  14.680  0.1752E+00  0.1588E+02
  14.690  0.1741E+00  0.1588E+02
  14.700  0.1730E+00  0.1589E+02
  14.710  0.1719E+00  0.1589E+02
  14.720  0.1709E+00  0.1589E+02
  14.730  0.1698E+00  0.1589E+02
  14.740  0.1688E+00  0.1589E+02
  14.750  0.1678E+00  0.1589E+02
  14.760  0.1669E+00  0.1590E+02
  14.770  0.1659E+00  0.1590E+02
  14.780  0.1650E+00  0.1590E+02
  14.790  0.1641E+00  0.1590E+02
  14.800  0.1632E+00  0.1590E+02
  14.810  0.1624E+00  0.1590E+02
  14.820  0.1616E+00  0.1591E+02
  14.830  0.1613E+00  0.1591E+02
  14.840  0.1612E+00  0.1591E+02
  14.850  0.1611E+00  0.1591E+02
  14.860  0.1610E+00  0.1591E+02
  14.870  0.1609E+00  0.1591E+02
  14.880  0.1608E+00  0.1592E+02
  14.890  0.1607E+00  0.1592E+02
  14.900  0.1605E+00  0.1592E+02
  14.910  0.1604E+00  0.1592E+02
  14.920  0.1602E+00  0.1592E+02
  14.930  0.1601E+00  0.1592E+02
  14.940  0.1599E+00  0.1593E+02
  14.950  0.1597E+00  0.1593E+02
  14.960  0.1595E+00  0.1593E+02
  14.970  0.1593E+00  0.1593E+02
  14.980  0.1591E+00  0.1593E+02
  14.990  0.1589E+00  0.1593E+02
  15.000  0.1587E+00  0.1593E+02
  15.010  0.1585E+00  0.1594E+02
  15.020  0.1582E+00  0.1594E+02
  15.030  0.1580E+00  0.1594E+02
  15.040  0.1577E+00  0.1594E+02
  15.050  0.1571E+00  0.1594E+02
  15.060  0.1565E+00  0.1594E+02
  15.070  0.1561E+00  0.1595E+02
  15.080  0.1561E+00  0.1595E+02
  15.090  0.1565E+00  0.1595E+02
  15.100  0.1571E+00  0.1595E+02
  15.110  0.1581E+00  0.1595E+02
  15.120  0.1594E+00  0.1595E+02
  15.130  0.1613E+00  0.1596E+02
  15.140  0.1656E+00  0.1596E+02
  15.150  0.1689E+00  0.1596E+02
  15.160  0.1711E+00  0.1596E+02
  15.170  0.1724E+00  0.1596E+02
  15.180  0.1726E+00  0.1596E+02
  15.190  0.1718E+00  0.1597E+02
  15.200  0.1700E+00  0.1597E+02
  15.210  0.1672E+00  0.1597E+02
  15.220  0.1634E+00  0.1597E+02
  15.230  0.1586E+00  0.1597E+02
  15.240  0.1527E+00  0.1597E+02
  15.250  0.1459E+00  0.1598E+02
  15.260  0.1380E+00  0.1598E+02
  15.270  0.1291E+00  0.1598E+02
  15.280  0.1192E+00  0.1598E+02
  15.290  0.1081E+00  0.1598E+02
  15.300  0.9586E-01  0.1598E+02
  15.310  0.9072E-01  0.1598E+02
  15.320  0.8520E-01  0.1598E+02
  15.330  0.7930E-01  0.1598E+02
  15.340  0.7302E-01  0.1598E+02
  15.350  0.6636E-01  0.1599E+02
  15.360  0.5933E-01  0.1599E+02
  15.370  0.5191E-01  0.1599E+02
  15.380  0.4412E-01  0.1599E+02
  15.390  0.3990E-01  0.1599E+02
  15.400  0.3907E-01  0.1599E+02
  15.410  0.3824E-01  0.1599E+02
  15.420  0.3743E-01  0.1599E+02
  15.430  0.3662E-01  0.1599E+02
  15.440  0.3582E-01  0.1599E+02
  15.450  0.3503E-01  0.1599E+02
  15.460  0.3425E-01  0.1599E+02
  15.470  0.3348E-01  0.1599E+02
  15.480  0.3271E-01  0.1599E+02
  15.490  0.3196E-01  0.1599E+02
  15.500  0.3121E-01  0.1599E+02
  15.510  0.3047E-01  0.1599E+02
  15.520  0.2974E-01  0.1599E+02
  15.530  0.2902E-01  0.1599E+02
  15.540  0.2831E-01  0.1599E+02
  15.550  0.2761E-01  0.1599E+02
  15.560  0.2692E-01  0.1599E+02
  15.570  0.2623E-01  0.1599E+02
  15.580  0.2556E-01  0.1599E+02
  15.590  0.2489E-01  0.1599E+02
  15.600  0.2423E-01  0.1599E+02
  15.610  0.2358E-01  0.1599E+02
  15.620  0.2294E-01  0.1599E+02
  15.630  0.2231E-01  0.1599E+02
  15.640  0.2169E-01  0.1599E+02
  15.650  0.2108E-01  0.1600E+02
  15.660  0.2047E-01  0.1600E+02
  15.670  0.1987E-01  0.1600E+02
  15.680  0.1929E-01  0.1600E+02
  15.690  0.1871E-01  0.1600E+02
  15.700  0.1814E-01  0.1600E+02
  15.710  0.1758E-01  0.1600E+02
  15.720  0.1702E-01  0.1600E+02
  15.730  0.1648E-01  0.1600E+02
  15.740  0.1595E-01  0.1600E+02
  15.750  0.1542E-01  0.1600E+02
  15.760  0.1490E-01  0.1600E+02
  15.770  0.1440E-01  0.1600E+02
  15.780  0.1390E-01  0.1600E+02
  15.790  0.1341E-01  0.1600E+02
  15.800  0.1292E-01  0.1600E+02
  15.810  0.1245E-01  0.1600E+02
  15.820  0.1199E-01  0.1600E+02
  15.830  0.1153E-01  0.1600E+02
  15.840  0.1109E-01  0.1600E+02
  15.850  0.1065E-01  0.1600E+02
  15.860  0.1022E-01  0.1600E+02
  15.870  0.9799E-02  0.1600E+02
  15.880  0.9387E-02  0.1600E+02
  15.890  0.8985E-02  0.1600E+02
  15.900  0.8591E-02  0.1600E+02
  15.910  0.8207E-02  0.1600E+02
  15.920  0.7831E-02  0.1600E+02
  15.930  0.7463E-02  0.1600E+02
  15.940  0.7105E-02  0.1600E+02
  15.950  0.6756E-02  0.1600E+02
  15.960  0.6415E-02  0.1600E+02
  15.970  0.6083E-02  0.1600E+02
  15.980  0.5760E-02  0.1600E+02
  15.990  0.5446E-02  0.1600E+02
  16.000  0.5140E-02  0.1600E+02
